# E (eV)   ldos(E)   pdos(E)_1   pdos(E)_2   
   7.605  0.146E-04  0.730E-05  0.730E-05
   7.607  0.908E-03  0.454E-03  0.454E-03
   7.609  0.766E-02  0.383E-02  0.383E-02
   7.611  0.892E-02  0.446E-02  0.446E-02
   7.613  0.172E-02  0.861E-03  0.861E-03
   7.615  0.187E-03  0.937E-04  0.937E-04
   7.617  0.138E-04  0.690E-05  0.690E-05
   7.619  0.184E-06  0.922E-07  0.922E-07
   7.621  0.347E-09  0.173E-09  0.173E-09
   7.623  0.889E-13  0.444E-13  0.444E-13
   7.625  0.309E-17  0.154E-17  0.154E-17
   7.627  0.469E-25  0.235E-25  0.235E-25
   7.629  0.546E-28  0.273E-28  0.273E-28
   7.631  0.861E-32  0.430E-32  0.430E-32
   7.633  0.136E-20  0.678E-21  0.678E-21
   7.635  0.143E-15  0.715E-16  0.715E-16
   7.637  0.204E-11  0.102E-11  0.102E-11
   7.639  0.399E-08  0.199E-08  0.199E-08
   7.641  0.108E-05  0.538E-06  0.538E-06
   7.643  0.414E-04  0.207E-04  0.207E-04
   7.645  0.243E-03  0.121E-03  0.121E-03
   7.647  0.238E-03  0.119E-03  0.119E-03
   7.649  0.403E-04  0.202E-04  0.202E-04
   7.651  0.112E-05  0.558E-06  0.558E-06
   7.653  0.921E-07  0.461E-07  0.461E-07
   7.655  0.323E-04  0.161E-04  0.161E-04
   7.657  0.161E-02  0.805E-03  0.805E-03
   7.659  0.109E-01  0.544E-02  0.544E-02
   7.661  0.995E-02  0.497E-02  0.497E-02
   7.663  0.128E-02  0.638E-03  0.638E-03
   7.665  0.183E-02  0.914E-03  0.914E-03
   7.667  0.986E-02  0.493E-02  0.493E-02
   7.669  0.728E-02  0.364E-02  0.364E-02
   7.671  0.728E-03  0.364E-03  0.364E-03
   7.673  0.103E-04  0.516E-05  0.516E-05
   7.675  0.241E-04  0.121E-04  0.121E-04
   7.677  0.170E-03  0.852E-04  0.852E-04
   7.679  0.169E-03  0.844E-04  0.844E-04
   7.681  0.236E-04  0.118E-04  0.118E-04
   7.683  0.606E-04  0.303E-04  0.303E-04
   7.685  0.256E-02  0.128E-02  0.128E-02
   7.687  0.148E-01  0.738E-02  0.738E-02
   7.689  0.115E-01  0.575E-02  0.575E-02
   7.691  0.121E-02  0.607E-03  0.607E-03
   7.693  0.173E-04  0.867E-05  0.867E-05
   7.695  0.335E-07  0.168E-07  0.168E-07
   7.697  0.876E-11  0.438E-11  0.438E-11
   7.699  0.419E-13  0.209E-13  0.209E-13
   7.701  0.178E-09  0.892E-10  0.892E-10
   7.703  0.104E-06  0.520E-07  0.520E-07
   7.705  0.826E-05  0.413E-05  0.413E-05
   7.707  0.892E-04  0.446E-04  0.446E-04
   7.709  0.131E-03  0.655E-04  0.655E-04
   7.711  0.262E-04  0.131E-04  0.131E-04
   7.713  0.710E-06  0.355E-06  0.355E-06
   7.715  0.262E-08  0.131E-08  0.131E-08
   7.717  0.132E-11  0.658E-12  0.658E-12
   7.719  0.337E-14  0.168E-14  0.168E-14
   7.721  0.608E-10  0.304E-10  0.304E-10
   7.723  0.156E-06  0.781E-07  0.781E-07
   7.725  0.558E-04  0.279E-04  0.279E-04
   7.727  0.279E-02  0.140E-02  0.140E-02
   7.729  0.196E-01  0.982E-02  0.982E-02
   7.731  0.195E-01  0.974E-02  0.974E-02
   7.733  0.272E-02  0.136E-02  0.136E-02
   7.735  0.195E-03  0.973E-04  0.973E-04
   7.737  0.157E-02  0.783E-03  0.783E-03
   7.739  0.411E-02  0.206E-02  0.206E-02
   7.741  0.453E-02  0.226E-02  0.226E-02
   7.743  0.408E-02  0.204E-02  0.204E-02
   7.745  0.197E-02  0.987E-03  0.987E-03
   7.747  0.201E-02  0.100E-02  0.100E-02
   7.749  0.227E-02  0.114E-02  0.114E-02
   7.751  0.120E-02  0.602E-03  0.602E-03
   7.753  0.415E-03  0.208E-03  0.208E-03
   7.755  0.175E-02  0.876E-03  0.876E-03
   7.757  0.191E-02  0.956E-03  0.956E-03
   7.759  0.139E-02  0.697E-03  0.697E-03
   7.761  0.983E-03  0.492E-03  0.492E-03
   7.763  0.193E-03  0.966E-04  0.966E-04
   7.765  0.829E-03  0.415E-03  0.415E-03
   7.767  0.243E-02  0.121E-02  0.121E-02
   7.769  0.986E-03  0.493E-03  0.493E-03
   7.771  0.254E-03  0.127E-03  0.127E-03
   7.773  0.125E-02  0.623E-03  0.623E-03
   7.775  0.105E-02  0.525E-03  0.525E-03
   7.777  0.144E-03  0.720E-04  0.720E-04
   7.779  0.676E-03  0.338E-03  0.338E-03
   7.781  0.255E-02  0.127E-02  0.127E-02
   7.783  0.131E-02  0.654E-03  0.654E-03
   7.785  0.114E-03  0.570E-04  0.570E-04
   7.787  0.238E-04  0.119E-04  0.119E-04
   7.789  0.681E-04  0.341E-04  0.341E-04
   7.791  0.876E-03  0.438E-03  0.438E-03
   7.793  0.365E-02  0.183E-02  0.183E-02
   7.795  0.197E-01  0.985E-02  0.985E-02
   7.797  0.256E-01  0.128E-01  0.128E-01
   7.799  0.711E-02  0.355E-02  0.355E-02
   7.801  0.145E-02  0.727E-03  0.727E-03
   7.803  0.728E-02  0.364E-02  0.364E-02
   7.805  0.131E-01  0.655E-02  0.655E-02
   7.807  0.321E-02  0.161E-02  0.161E-02
   7.809  0.108E-03  0.538E-04  0.538E-04
   7.811  0.365E-05  0.182E-05  0.182E-05
   7.813  0.170E-03  0.850E-04  0.850E-04
   7.815  0.127E-02  0.634E-03  0.634E-03
   7.817  0.192E-02  0.958E-03  0.958E-03
   7.819  0.299E-02  0.149E-02  0.149E-02
   7.821  0.159E-02  0.796E-03  0.796E-03
   7.823  0.126E-03  0.631E-04  0.631E-04
   7.825  0.362E-05  0.181E-05  0.181E-05
   7.827  0.226E-05  0.113E-05  0.113E-05
   7.829  0.101E-05  0.503E-06  0.503E-06
   7.831  0.655E-07  0.328E-07  0.328E-07
   7.833  0.166E-06  0.832E-07  0.832E-07
   7.835  0.133E-05  0.664E-06  0.664E-06
   7.837  0.163E-05  0.814E-06  0.814E-06
   7.839  0.364E-04  0.182E-04  0.182E-04
   7.841  0.105E-02  0.527E-03  0.527E-03
   7.843  0.439E-02  0.219E-02  0.219E-02
   7.845  0.266E-02  0.133E-02  0.133E-02
   7.847  0.236E-03  0.118E-03  0.118E-03
   7.849  0.336E-05  0.168E-05  0.168E-05
   7.851  0.197E-05  0.984E-06  0.984E-06
   7.853  0.200E-05  0.100E-05  0.100E-05
   7.855  0.278E-06  0.139E-06  0.139E-06
   7.857  0.525E-08  0.262E-08  0.262E-08
   7.859  0.919E-07  0.459E-07  0.459E-07
   7.861  0.325E-04  0.162E-04  0.162E-04
   7.863  0.156E-02  0.778E-03  0.778E-03
   7.865  0.101E-01  0.504E-02  0.504E-02
   7.867  0.905E-02  0.452E-02  0.452E-02
   7.869  0.319E-02  0.160E-02  0.160E-02
   7.871  0.292E-02  0.146E-02  0.146E-02
   7.873  0.771E-03  0.386E-03  0.386E-03
   7.875  0.141E-02  0.707E-03  0.707E-03
   7.877  0.111E-02  0.555E-03  0.555E-03
   7.879  0.602E-03  0.301E-03  0.301E-03
   7.881  0.683E-02  0.341E-02  0.341E-02
   7.883  0.131E-01  0.655E-02  0.655E-02
   7.885  0.340E-02  0.170E-02  0.170E-02
   7.887  0.120E-03  0.598E-04  0.598E-04
   7.889  0.569E-06  0.285E-06  0.285E-06
   7.891  0.367E-09  0.184E-09  0.184E-09
   7.893  0.339E-08  0.169E-08  0.169E-08
   7.895  0.212E-05  0.106E-05  0.106E-05
   7.897  0.179E-03  0.897E-04  0.897E-04
   7.899  0.205E-02  0.103E-02  0.103E-02
   7.901  0.319E-02  0.160E-02  0.160E-02
   7.903  0.127E-02  0.635E-03  0.635E-03
   7.905  0.817E-02  0.408E-02  0.408E-02
   7.907  0.150E-01  0.748E-02  0.748E-02
   7.909  0.421E-02  0.210E-02  0.210E-02
   7.911  0.174E-02  0.869E-03  0.869E-03
   7.913  0.706E-03  0.353E-03  0.353E-03
   7.915  0.417E-04  0.209E-04  0.209E-04
   7.917  0.334E-06  0.167E-06  0.167E-06
   7.919  0.362E-09  0.181E-09  0.181E-09
   7.921  0.531E-13  0.266E-13  0.266E-13
   7.923  0.187E-14  0.937E-15  0.937E-15
   7.925  0.287E-10  0.144E-10  0.144E-10
   7.927  0.597E-07  0.298E-07  0.298E-07
   7.929  0.168E-04  0.839E-05  0.839E-05
   7.931  0.638E-03  0.319E-03  0.319E-03
   7.933  0.329E-02  0.164E-02  0.164E-02
   7.935  0.255E-02  0.127E-02  0.127E-02
   7.937  0.505E-02  0.252E-02  0.252E-02
   7.939  0.121E-01  0.606E-02  0.606E-02
   7.941  0.411E-02  0.205E-02  0.205E-02
   7.943  0.190E-03  0.952E-04  0.952E-04
   7.945  0.142E-04  0.711E-05  0.711E-05
   7.947  0.342E-03  0.171E-03  0.171E-03
   7.949  0.153E-02  0.764E-03  0.764E-03
   7.951  0.925E-03  0.463E-03  0.463E-03
   7.953  0.758E-04  0.379E-04  0.379E-04
   7.955  0.840E-06  0.420E-06  0.420E-06
   7.957  0.141E-06  0.704E-07  0.704E-07
   7.959  0.448E-04  0.224E-04  0.224E-04
   7.961  0.195E-02  0.977E-03  0.977E-03
   7.963  0.118E-01  0.592E-02  0.592E-02
   7.965  0.111E-01  0.555E-02  0.555E-02
   7.967  0.394E-02  0.197E-02  0.197E-02
   7.969  0.521E-02  0.261E-02  0.261E-02
   7.971  0.376E-02  0.188E-02  0.188E-02
   7.973  0.930E-03  0.465E-03  0.465E-03
   7.975  0.148E-02  0.742E-03  0.742E-03
   7.977  0.779E-03  0.390E-03  0.390E-03
   7.979  0.135E-02  0.677E-03  0.677E-03
   7.981  0.110E-02  0.551E-03  0.551E-03
   7.983  0.125E-03  0.623E-04  0.623E-04
   7.985  0.151E-04  0.753E-05  0.753E-05
   7.987  0.476E-03  0.238E-03  0.238E-03
   7.989  0.257E-02  0.128E-02  0.128E-02
   7.991  0.210E-02  0.105E-02  0.105E-02
   7.993  0.556E-03  0.278E-03  0.278E-03
   7.995  0.145E-02  0.726E-03  0.726E-03
   7.997  0.947E-03  0.474E-03  0.474E-03
   7.999  0.838E-04  0.419E-04  0.419E-04
   8.001  0.100E-05  0.502E-06  0.502E-06
   8.003  0.397E-06  0.198E-06  0.198E-06
   8.005  0.657E-04  0.329E-04  0.329E-04
   8.007  0.153E-02  0.765E-03  0.765E-03
   8.009  0.517E-02  0.258E-02  0.258E-02
   8.011  0.317E-02  0.158E-02  0.158E-02
   8.013  0.694E-02  0.347E-02  0.347E-02
   8.015  0.159E-01  0.797E-02  0.797E-02
   8.017  0.181E-01  0.907E-02  0.907E-02
   8.019  0.768E-02  0.384E-02  0.384E-02
   8.021  0.525E-03  0.263E-03  0.263E-03
   8.023  0.519E-05  0.259E-05  0.259E-05
   8.025  0.133E-07  0.663E-08  0.663E-08
   8.027  0.152E-05  0.759E-06  0.759E-06
   8.029  0.110E-03  0.552E-04  0.552E-04
   8.031  0.109E-02  0.545E-03  0.545E-03
   8.033  0.154E-02  0.768E-03  0.768E-03
   8.035  0.110E-02  0.550E-03  0.550E-03
   8.037  0.113E-02  0.565E-03  0.565E-03
   8.039  0.509E-03  0.255E-03  0.255E-03
   8.041  0.148E-02  0.742E-03  0.742E-03
   8.043  0.110E-02  0.548E-03  0.548E-03
   8.045  0.362E-02  0.181E-02  0.181E-02
   8.047  0.124E-01  0.620E-02  0.620E-02
   8.049  0.701E-02  0.351E-02  0.351E-02
   8.051  0.464E-02  0.232E-02  0.232E-02
   8.053  0.210E-02  0.105E-02  0.105E-02
   8.055  0.139E-03  0.697E-04  0.697E-04
   8.057  0.128E-05  0.639E-06  0.639E-06
   8.059  0.681E-06  0.340E-06  0.340E-06
   8.061  0.250E-05  0.125E-05  0.125E-05
   8.063  0.357E-05  0.179E-05  0.179E-05
   8.065  0.126E-03  0.632E-04  0.632E-04
   8.067  0.981E-03  0.490E-03  0.490E-03
   8.069  0.178E-02  0.889E-03  0.889E-03
   8.071  0.168E-02  0.841E-03  0.841E-03
   8.073  0.785E-03  0.392E-03  0.392E-03
   8.075  0.162E-02  0.812E-03  0.812E-03
   8.077  0.850E-03  0.425E-03  0.425E-03
   8.079  0.606E-04  0.303E-04  0.303E-04
   8.081  0.585E-06  0.292E-06  0.292E-06
   8.083  0.774E-09  0.387E-09  0.387E-09
   8.085  0.345E-07  0.172E-07  0.172E-07
   8.087  0.158E-04  0.791E-05  0.791E-05
   8.089  0.983E-03  0.491E-03  0.491E-03
   8.091  0.827E-02  0.413E-02  0.413E-02
   8.093  0.963E-02  0.482E-02  0.482E-02
   8.095  0.416E-02  0.208E-02  0.208E-02
   8.097  0.438E-02  0.219E-02  0.219E-02
   8.099  0.101E-02  0.503E-03  0.503E-03
   8.101  0.940E-03  0.470E-03  0.470E-03
   8.103  0.220E-02  0.110E-02  0.110E-02
   8.105  0.137E-02  0.686E-03  0.686E-03
   8.107  0.225E-03  0.113E-03  0.113E-03
   8.109  0.628E-05  0.314E-05  0.314E-05
   8.111  0.258E-07  0.129E-07  0.129E-07
   8.113  0.720E-06  0.360E-06  0.360E-06
   8.115  0.696E-04  0.348E-04  0.348E-04
   8.117  0.912E-03  0.456E-03  0.456E-03
   8.119  0.162E-02  0.808E-03  0.808E-03
   8.121  0.388E-03  0.194E-03  0.194E-03
   8.123  0.961E-04  0.481E-04  0.481E-04
   8.125  0.277E-02  0.138E-02  0.138E-02
   8.127  0.124E-01  0.621E-02  0.621E-02
   8.129  0.828E-02  0.414E-02  0.414E-02
   8.131  0.824E-02  0.412E-02  0.412E-02
   8.133  0.105E-01  0.523E-02  0.523E-02
   8.135  0.262E-02  0.131E-02  0.131E-02
   8.137  0.172E-02  0.861E-03  0.861E-03
   8.139  0.710E-03  0.355E-03  0.355E-03
   8.141  0.202E-02  0.101E-02  0.101E-02
   8.143  0.760E-02  0.380E-02  0.380E-02
   8.145  0.898E-02  0.449E-02  0.449E-02
   8.147  0.337E-02  0.168E-02  0.168E-02
   8.149  0.390E-02  0.195E-02  0.195E-02
   8.151  0.157E-02  0.783E-03  0.783E-03
   8.153  0.120E-03  0.600E-04  0.600E-04
   8.155  0.756E-03  0.378E-03  0.378E-03
   8.157  0.345E-02  0.172E-02  0.172E-02
   8.159  0.312E-02  0.156E-02  0.156E-02
   8.161  0.202E-02  0.101E-02  0.101E-02
   8.163  0.750E-03  0.375E-03  0.375E-03
   8.165  0.827E-04  0.414E-04  0.414E-04
   8.167  0.100E-02  0.502E-03  0.502E-03
   8.169  0.744E-02  0.372E-02  0.372E-02
   8.171  0.144E-01  0.722E-02  0.722E-02
   8.173  0.578E-02  0.289E-02  0.289E-02
   8.175  0.552E-03  0.276E-03  0.276E-03
   8.177  0.123E-04  0.616E-05  0.616E-05
   8.179  0.267E-05  0.133E-05  0.133E-05
   8.181  0.143E-03  0.713E-04  0.713E-04
   8.183  0.132E-02  0.660E-03  0.660E-03
   8.185  0.345E-02  0.173E-02  0.173E-02
   8.187  0.272E-02  0.136E-02  0.136E-02
   8.189  0.108E-02  0.541E-03  0.541E-03
   8.191  0.365E-03  0.182E-03  0.182E-03
   8.193  0.735E-03  0.367E-03  0.367E-03
   8.195  0.453E-02  0.226E-02  0.226E-02
   8.197  0.389E-02  0.194E-02  0.194E-02
   8.199  0.605E-03  0.303E-03  0.303E-03
   8.201  0.176E-02  0.881E-03  0.881E-03
   8.203  0.363E-02  0.182E-02  0.182E-02
   8.205  0.407E-02  0.204E-02  0.204E-02
   8.207  0.255E-02  0.127E-02  0.127E-02
   8.209  0.176E-02  0.881E-03  0.881E-03
   8.211  0.395E-03  0.197E-03  0.197E-03
   8.213  0.301E-04  0.150E-04  0.150E-04
   8.215  0.102E-02  0.509E-03  0.509E-03
   8.217  0.804E-02  0.402E-02  0.402E-02
   8.219  0.859E-02  0.429E-02  0.429E-02
   8.221  0.130E-02  0.650E-03  0.650E-03
   8.223  0.641E-03  0.320E-03  0.320E-03
   8.225  0.121E-02  0.605E-03  0.605E-03
   8.227  0.301E-02  0.150E-02  0.150E-02
   8.229  0.324E-02  0.162E-02  0.162E-02
   8.231  0.552E-03  0.276E-03  0.276E-03
   8.233  0.207E-02  0.104E-02  0.104E-02
   8.235  0.110E-01  0.550E-02  0.550E-02
   8.237  0.799E-02  0.399E-02  0.399E-02
   8.239  0.116E-02  0.582E-03  0.582E-03
   8.241  0.186E-02  0.930E-03  0.930E-03
   8.243  0.237E-02  0.118E-02  0.118E-02
   8.245  0.155E-02  0.775E-03  0.775E-03
   8.247  0.154E-02  0.771E-03  0.771E-03
   8.249  0.115E-01  0.575E-02  0.575E-02
   8.251  0.140E-01  0.702E-02  0.702E-02
   8.253  0.438E-02  0.219E-02  0.219E-02
   8.255  0.435E-02  0.217E-02  0.217E-02
   8.257  0.122E-02  0.608E-03  0.608E-03
   8.259  0.467E-04  0.233E-04  0.233E-04
   8.261  0.242E-06  0.121E-06  0.121E-06
   8.263  0.170E-09  0.850E-10  0.850E-10
   8.265  0.162E-13  0.808E-14  0.808E-14
   8.267  0.409E-15  0.205E-15  0.205E-15
   8.269  0.830E-11  0.415E-11  0.415E-11
   8.271  0.232E-07  0.116E-07  0.116E-07
   8.273  0.888E-05  0.444E-05  0.444E-05
   8.275  0.470E-03  0.235E-03  0.235E-03
   8.277  0.342E-02  0.171E-02  0.171E-02
   8.279  0.344E-02  0.172E-02  0.172E-02
   8.281  0.560E-03  0.280E-03  0.280E-03
   8.283  0.184E-02  0.919E-03  0.919E-03
   8.285  0.541E-02  0.270E-02  0.270E-02
   8.287  0.218E-02  0.109E-02  0.109E-02
   8.289  0.119E-03  0.596E-04  0.596E-04
   8.291  0.891E-06  0.445E-06  0.445E-06
   8.293  0.197E-06  0.983E-07  0.983E-07
   8.295  0.106E-05  0.532E-06  0.532E-06
   8.297  0.102E-05  0.512E-06  0.512E-06
   8.299  0.594E-04  0.297E-04  0.297E-04
   8.301  0.197E-02  0.987E-03  0.987E-03
   8.303  0.891E-02  0.446E-02  0.446E-02
   8.305  0.669E-02  0.334E-02  0.334E-02
   8.307  0.679E-02  0.339E-02  0.339E-02
   8.309  0.668E-02  0.334E-02  0.334E-02
   8.311  0.395E-02  0.197E-02  0.197E-02
   8.313  0.776E-03  0.388E-03  0.388E-03
   8.315  0.761E-04  0.381E-04  0.381E-04
   8.317  0.139E-02  0.697E-03  0.697E-03
   8.319  0.533E-02  0.267E-02  0.267E-02
   8.321  0.276E-02  0.138E-02  0.138E-02
   8.323  0.194E-03  0.971E-04  0.971E-04
   8.325  0.850E-04  0.425E-04  0.425E-04
   8.327  0.227E-02  0.114E-02  0.114E-02
   8.329  0.841E-02  0.420E-02  0.420E-02
   8.331  0.422E-02  0.211E-02  0.211E-02
   8.333  0.439E-03  0.220E-03  0.220E-03
   8.335  0.525E-03  0.263E-03  0.263E-03
   8.337  0.230E-02  0.115E-02  0.115E-02
   8.339  0.106E-01  0.530E-02  0.530E-02
   8.341  0.101E-01  0.503E-02  0.503E-02
   8.343  0.181E-02  0.906E-03  0.906E-03
   8.345  0.512E-03  0.256E-03  0.256E-03
   8.347  0.844E-04  0.422E-04  0.422E-04
   8.349  0.203E-05  0.101E-05  0.101E-05
   8.351  0.153E-06  0.767E-07  0.767E-07
   8.353  0.368E-04  0.184E-04  0.184E-04
   8.355  0.125E-02  0.626E-03  0.626E-03
   8.357  0.576E-02  0.288E-02  0.288E-02
   8.359  0.360E-02  0.180E-02  0.180E-02
   8.361  0.734E-03  0.367E-03  0.367E-03
   8.363  0.256E-02  0.128E-02  0.128E-02
   8.365  0.359E-02  0.180E-02  0.180E-02
   8.367  0.570E-02  0.285E-02  0.285E-02
   8.369  0.591E-02  0.295E-02  0.295E-02
   8.371  0.944E-03  0.472E-03  0.472E-03
   8.373  0.205E-04  0.103E-04  0.103E-04
   8.375  0.771E-07  0.385E-07  0.385E-07
   8.377  0.366E-05  0.183E-05  0.183E-05
   8.379  0.111E-03  0.554E-04  0.554E-04
   8.381  0.565E-03  0.282E-03  0.282E-03
   8.383  0.195E-02  0.974E-03  0.974E-03
   8.385  0.563E-02  0.281E-02  0.281E-02
   8.387  0.930E-02  0.465E-02  0.465E-02
   8.389  0.464E-02  0.232E-02  0.232E-02
   8.391  0.364E-03  0.182E-03  0.182E-03
   8.393  0.412E-05  0.206E-05  0.206E-05
   8.395  0.239E-04  0.120E-04  0.120E-04
   8.397  0.107E-02  0.533E-03  0.533E-03
   8.399  0.720E-02  0.360E-02  0.360E-02
   8.401  0.856E-02  0.428E-02  0.428E-02
   8.403  0.239E-02  0.120E-02  0.120E-02
   8.405  0.257E-02  0.128E-02  0.128E-02
   8.407  0.736E-02  0.368E-02  0.368E-02
   8.409  0.311E-02  0.155E-02  0.155E-02
   8.411  0.185E-02  0.927E-03  0.927E-03
   8.413  0.388E-02  0.194E-02  0.194E-02
   8.415  0.125E-02  0.627E-03  0.627E-03
   8.417  0.589E-03  0.295E-03  0.295E-03
   8.419  0.379E-02  0.189E-02  0.189E-02
   8.421  0.636E-02  0.318E-02  0.318E-02
   8.423  0.563E-02  0.281E-02  0.281E-02
   8.425  0.209E-02  0.105E-02  0.105E-02
   8.427  0.196E-02  0.978E-03  0.978E-03
   8.429  0.187E-02  0.933E-03  0.933E-03
   8.431  0.578E-02  0.289E-02  0.289E-02
   8.433  0.764E-02  0.382E-02  0.382E-02
   8.435  0.314E-02  0.157E-02  0.157E-02
   8.437  0.412E-02  0.206E-02  0.206E-02
   8.439  0.798E-02  0.399E-02  0.399E-02
   8.441  0.271E-02  0.136E-02  0.136E-02
   8.443  0.248E-02  0.124E-02  0.124E-02
   8.445  0.672E-02  0.336E-02  0.336E-02
   8.447  0.691E-02  0.346E-02  0.346E-02
   8.449  0.116E-02  0.581E-03  0.581E-03
   8.451  0.334E-04  0.167E-04  0.167E-04
   8.453  0.295E-03  0.147E-03  0.147E-03
   8.455  0.179E-02  0.896E-03  0.896E-03
   8.457  0.148E-02  0.739E-03  0.739E-03
   8.459  0.220E-03  0.110E-03  0.110E-03
   8.461  0.263E-03  0.131E-03  0.131E-03
   8.463  0.168E-03  0.838E-04  0.838E-04
   8.465  0.255E-03  0.127E-03  0.127E-03
   8.467  0.345E-02  0.173E-02  0.173E-02
   8.469  0.757E-02  0.378E-02  0.378E-02
   8.471  0.371E-02  0.185E-02  0.185E-02
   8.473  0.546E-03  0.273E-03  0.273E-03
   8.475  0.159E-04  0.796E-05  0.796E-05
   8.477  0.246E-05  0.123E-05  0.123E-05
   8.479  0.238E-03  0.119E-03  0.119E-03
   8.481  0.320E-02  0.160E-02  0.160E-02
   8.483  0.585E-02  0.293E-02  0.293E-02
   8.485  0.182E-02  0.912E-03  0.912E-03
   8.487  0.193E-02  0.964E-03  0.964E-03
   8.489  0.173E-02  0.864E-03  0.864E-03
   8.491  0.225E-03  0.113E-03  0.113E-03
   8.493  0.158E-03  0.788E-04  0.788E-04
   8.495  0.321E-02  0.161E-02  0.161E-02
   8.497  0.106E-01  0.528E-02  0.528E-02
   8.499  0.112E-01  0.558E-02  0.558E-02
   8.501  0.502E-02  0.251E-02  0.251E-02
   8.503  0.605E-03  0.303E-03  0.303E-03
   8.505  0.334E-03  0.167E-03  0.167E-03
   8.507  0.182E-02  0.908E-03  0.908E-03
   8.509  0.183E-02  0.915E-03  0.915E-03
   8.511  0.250E-03  0.125E-03  0.125E-03
   8.513  0.463E-05  0.231E-05  0.231E-05
   8.515  0.116E-07  0.580E-08  0.580E-08
   8.517  0.393E-11  0.197E-11  0.197E-11
   8.519  0.156E-13  0.782E-14  0.782E-14
   8.521  0.175E-09  0.873E-10  0.873E-10
   8.523  0.268E-06  0.134E-06  0.134E-06
   8.525  0.559E-04  0.280E-04  0.280E-04
   8.527  0.163E-02  0.813E-03  0.813E-03
   8.529  0.705E-02  0.353E-02  0.353E-02
   8.531  0.542E-02  0.271E-02  0.271E-02
   8.533  0.948E-03  0.474E-03  0.474E-03
   8.535  0.713E-04  0.357E-04  0.357E-04
   8.537  0.383E-04  0.191E-04  0.191E-04
   8.539  0.912E-04  0.456E-04  0.456E-04
   8.541  0.193E-03  0.963E-04  0.963E-04
   8.543  0.148E-02  0.742E-03  0.742E-03
   8.545  0.526E-02  0.263E-02  0.263E-02
   8.547  0.279E-02  0.139E-02  0.139E-02
   8.549  0.968E-03  0.484E-03  0.484E-03
   8.551  0.705E-02  0.353E-02  0.353E-02
   8.553  0.122E-01  0.608E-02  0.608E-02
   8.555  0.811E-02  0.405E-02  0.405E-02
   8.557  0.330E-02  0.165E-02  0.165E-02
   8.559  0.523E-03  0.261E-03  0.261E-03
   8.561  0.334E-04  0.167E-04  0.167E-04
   8.563  0.169E-03  0.845E-04  0.845E-04
   8.565  0.531E-03  0.265E-03  0.265E-03
   8.567  0.737E-03  0.369E-03  0.369E-03
   8.569  0.549E-02  0.274E-02  0.274E-02
   8.571  0.843E-02  0.422E-02  0.422E-02
   8.573  0.213E-02  0.107E-02  0.107E-02
   8.575  0.626E-03  0.313E-03  0.313E-03
   8.577  0.190E-03  0.949E-04  0.949E-04
   8.579  0.512E-04  0.256E-04  0.256E-04
   8.581  0.386E-03  0.193E-03  0.193E-03
   8.583  0.260E-02  0.130E-02  0.130E-02
   8.585  0.270E-02  0.135E-02  0.135E-02
   8.587  0.549E-03  0.275E-03  0.275E-03
   8.589  0.272E-04  0.136E-04  0.136E-04
   8.591  0.652E-06  0.326E-06  0.326E-06
   8.593  0.272E-04  0.136E-04  0.136E-04
   8.595  0.305E-03  0.153E-03  0.153E-03
   8.597  0.698E-03  0.349E-03  0.349E-03
   8.599  0.367E-03  0.184E-03  0.184E-03
   8.601  0.349E-04  0.175E-04  0.175E-04
   8.603  0.926E-06  0.463E-06  0.463E-06
   8.605  0.693E-04  0.346E-04  0.346E-04
   8.607  0.151E-02  0.757E-03  0.757E-03
   8.609  0.542E-02  0.271E-02  0.271E-02
   8.611  0.105E-01  0.523E-02  0.523E-02
   8.613  0.133E-01  0.665E-02  0.665E-02
   8.615  0.798E-02  0.399E-02  0.399E-02
   8.617  0.299E-02  0.149E-02  0.149E-02
   8.619  0.211E-02  0.105E-02  0.105E-02
   8.621  0.347E-02  0.173E-02  0.173E-02
   8.623  0.146E-02  0.730E-03  0.730E-03
   8.625  0.726E-03  0.363E-03  0.363E-03
   8.627  0.645E-03  0.323E-03  0.323E-03
   8.629  0.387E-03  0.193E-03  0.193E-03
   8.631  0.199E-03  0.994E-04  0.994E-04
   8.633  0.223E-04  0.112E-04  0.112E-04
   8.635  0.336E-04  0.168E-04  0.168E-04
   8.637  0.245E-03  0.123E-03  0.123E-03
   8.639  0.451E-03  0.226E-03  0.226E-03
   8.641  0.649E-03  0.325E-03  0.325E-03
   8.643  0.440E-02  0.220E-02  0.220E-02
   8.645  0.111E-01  0.554E-02  0.554E-02
   8.647  0.680E-02  0.340E-02  0.340E-02
   8.649  0.185E-02  0.927E-03  0.927E-03
   8.651  0.122E-03  0.612E-04  0.612E-04
   8.653  0.197E-04  0.986E-05  0.986E-05
   8.655  0.115E-03  0.574E-04  0.574E-04
   8.657  0.509E-03  0.254E-03  0.254E-03
   8.659  0.500E-03  0.250E-03  0.250E-03
   8.661  0.605E-03  0.302E-03  0.302E-03
   8.663  0.458E-03  0.229E-03  0.229E-03
   8.665  0.516E-04  0.258E-04  0.258E-04
   8.667  0.214E-04  0.107E-04  0.107E-04
   8.669  0.152E-03  0.759E-04  0.759E-04
   8.671  0.233E-03  0.116E-03  0.116E-03
   8.673  0.115E-02  0.576E-03  0.576E-03
   8.675  0.856E-02  0.428E-02  0.428E-02
   8.677  0.169E-01  0.844E-02  0.844E-02
   8.679  0.755E-02  0.377E-02  0.377E-02
   8.681  0.281E-02  0.140E-02  0.140E-02
   8.683  0.395E-02  0.198E-02  0.198E-02
   8.685  0.136E-02  0.680E-03  0.680E-03
   8.687  0.773E-04  0.387E-04  0.387E-04
   8.689  0.311E-05  0.156E-05  0.156E-05
   8.691  0.845E-05  0.423E-05  0.423E-05
   8.693  0.238E-04  0.119E-04  0.119E-04
   8.695  0.202E-03  0.101E-03  0.101E-03
   8.697  0.338E-03  0.169E-03  0.169E-03
   8.699  0.256E-03  0.128E-03  0.128E-03
   8.701  0.303E-03  0.152E-03  0.152E-03
   8.703  0.740E-03  0.370E-03  0.370E-03
   8.705  0.328E-03  0.164E-03  0.164E-03
   8.707  0.203E-04  0.102E-04  0.102E-04
   8.709  0.117E-05  0.587E-06  0.587E-06
   8.711  0.233E-05  0.117E-05  0.117E-05
   8.713  0.426E-04  0.213E-04  0.213E-04
   8.715  0.228E-03  0.114E-03  0.114E-03
   8.717  0.408E-03  0.204E-03  0.204E-03
   8.719  0.149E-02  0.745E-03  0.745E-03
   8.721  0.689E-02  0.344E-02  0.344E-02
   8.723  0.135E-01  0.674E-02  0.674E-02
   8.725  0.840E-02  0.420E-02  0.420E-02
   8.727  0.201E-02  0.100E-02  0.100E-02
   8.729  0.177E-03  0.886E-04  0.886E-04
   8.731  0.479E-04  0.239E-04  0.239E-04
   8.733  0.171E-03  0.855E-04  0.855E-04
   8.735  0.890E-04  0.445E-04  0.445E-04
   8.737  0.236E-04  0.118E-04  0.118E-04
   8.739  0.165E-03  0.823E-04  0.823E-04
   8.741  0.215E-03  0.108E-03  0.108E-03
   8.743  0.463E-03  0.232E-03  0.232E-03
   8.745  0.661E-02  0.330E-02  0.330E-02
   8.747  0.139E-01  0.693E-02  0.693E-02
   8.749  0.425E-02  0.213E-02  0.213E-02
   8.751  0.106E-02  0.530E-03  0.530E-03
   8.753  0.575E-03  0.287E-03  0.287E-03
   8.755  0.778E-03  0.389E-03  0.389E-03
   8.757  0.583E-03  0.292E-03  0.292E-03
   8.759  0.586E-03  0.293E-03  0.293E-03
   8.761  0.326E-02  0.163E-02  0.163E-02
   8.763  0.287E-02  0.144E-02  0.144E-02
   8.765  0.483E-03  0.242E-03  0.242E-03
   8.767  0.321E-04  0.160E-04  0.160E-04
   8.769  0.139E-05  0.694E-06  0.694E-06
   8.771  0.279E-04  0.140E-04  0.140E-04
   8.773  0.141E-03  0.706E-04  0.706E-04
   8.775  0.329E-03  0.165E-03  0.165E-03
   8.777  0.871E-03  0.436E-03  0.436E-03
   8.779  0.413E-03  0.206E-03  0.206E-03
   8.781  0.267E-04  0.133E-04  0.133E-04
   8.783  0.243E-06  0.121E-06  0.121E-06
   8.785  0.184E-05  0.920E-06  0.920E-06
   8.787  0.481E-04  0.240E-04  0.240E-04
   8.789  0.170E-03  0.851E-04  0.851E-04
   8.791  0.818E-04  0.409E-04  0.409E-04
   8.793  0.201E-04  0.100E-04  0.100E-04
   8.795  0.993E-04  0.497E-04  0.497E-04
   8.797  0.901E-04  0.450E-04  0.450E-04
   8.799  0.128E-04  0.638E-05  0.638E-05
   8.801  0.267E-03  0.134E-03  0.134E-03
   8.803  0.570E-02  0.285E-02  0.285E-02
   8.805  0.165E-01  0.824E-02  0.824E-02
   8.807  0.648E-02  0.324E-02  0.324E-02
   8.809  0.345E-03  0.173E-03  0.173E-03
   8.811  0.338E-05  0.169E-05  0.169E-05
   8.813  0.292E-04  0.146E-04  0.146E-04
   8.815  0.130E-03  0.652E-04  0.652E-04
   8.817  0.197E-03  0.983E-04  0.983E-04
   8.819  0.344E-02  0.172E-02  0.172E-02
   8.821  0.148E-01  0.740E-02  0.740E-02
   8.823  0.881E-02  0.440E-02  0.440E-02
   8.825  0.711E-03  0.356E-03  0.356E-03
   8.827  0.777E-05  0.389E-05  0.389E-05
   8.829  0.223E-06  0.112E-06  0.112E-06
   8.831  0.261E-04  0.131E-04  0.131E-04
   8.833  0.435E-03  0.218E-03  0.218E-03
   8.835  0.983E-03  0.491E-03  0.491E-03
   8.837  0.300E-03  0.150E-03  0.150E-03
   8.839  0.163E-04  0.816E-05  0.816E-05
   8.841  0.559E-04  0.279E-04  0.279E-04
   8.843  0.135E-03  0.676E-04  0.676E-04
   8.845  0.102E-03  0.512E-04  0.512E-04
   8.847  0.106E-03  0.529E-04  0.529E-04
   8.849  0.166E-02  0.831E-03  0.831E-03
   8.851  0.454E-02  0.227E-02  0.227E-02
   8.853  0.168E-02  0.841E-03  0.841E-03
   8.855  0.843E-04  0.421E-04  0.421E-04
   8.857  0.571E-06  0.286E-06  0.286E-06
   8.859  0.419E-08  0.209E-08  0.209E-08
   8.861  0.162E-05  0.810E-06  0.810E-06
   8.863  0.969E-04  0.484E-04  0.484E-04
   8.865  0.785E-03  0.392E-03  0.392E-03
   8.867  0.866E-03  0.433E-03  0.433E-03
   8.869  0.198E-03  0.990E-04  0.990E-04
   8.871  0.125E-03  0.623E-04  0.623E-04
   8.873  0.308E-04  0.154E-04  0.154E-04
   8.875  0.113E-05  0.565E-06  0.565E-06
   8.877  0.597E-08  0.298E-08  0.298E-08
   8.879  0.447E-11  0.223E-11  0.223E-11
   8.881  0.529E-11  0.264E-11  0.264E-11
   8.883  0.209E-07  0.104E-07  0.104E-07
   8.885  0.112E-04  0.558E-05  0.558E-05
   8.887  0.808E-03  0.404E-03  0.404E-03
   8.889  0.792E-02  0.396E-02  0.396E-02
   8.891  0.105E-01  0.525E-02  0.525E-02
   8.893  0.188E-02  0.942E-03  0.942E-03
   8.895  0.107E-03  0.536E-04  0.536E-04
   8.897  0.167E-02  0.834E-03  0.834E-03
   8.899  0.107E-01  0.535E-02  0.535E-02
   8.901  0.202E-01  0.101E-01  0.101E-01
   8.903  0.819E-02  0.410E-02  0.410E-02
   8.905  0.506E-03  0.253E-03  0.253E-03
   8.907  0.432E-05  0.216E-05  0.216E-05
   8.909  0.501E-08  0.251E-08  0.251E-08
   8.911  0.787E-12  0.394E-12  0.394E-12
   8.913  0.182E-16  0.912E-17  0.912E-17
   8.915  0.335E-13  0.168E-13  0.168E-13
   8.917  0.103E-09  0.515E-10  0.515E-10
   8.919  0.437E-07  0.219E-07  0.219E-07
   8.921  0.267E-05  0.134E-05  0.134E-05
   8.923  0.260E-04  0.130E-04  0.130E-04
   8.925  0.465E-04  0.233E-04  0.233E-04
   8.927  0.157E-04  0.784E-05  0.784E-05
   8.929  0.548E-05  0.274E-05  0.274E-05
   8.931  0.190E-03  0.952E-04  0.952E-04
   8.933  0.107E-02  0.533E-03  0.533E-03
   8.935  0.808E-03  0.404E-03  0.404E-03
   8.937  0.828E-04  0.414E-04  0.414E-04
   8.939  0.115E-05  0.575E-06  0.575E-06
   8.941  0.216E-08  0.108E-08  0.108E-08
   8.943  0.243E-08  0.121E-08  0.121E-08
   8.945  0.174E-05  0.868E-06  0.868E-06
   8.947  0.182E-03  0.911E-04  0.911E-04
   8.949  0.265E-02  0.133E-02  0.133E-02
   8.951  0.527E-02  0.264E-02  0.264E-02
   8.953  0.142E-02  0.711E-03  0.711E-03
   8.955  0.519E-04  0.260E-04  0.260E-04
   8.957  0.256E-06  0.128E-06  0.128E-06
   8.959  0.172E-09  0.858E-10  0.858E-10
   8.961  0.139E-11  0.695E-12  0.695E-12
   8.963  0.450E-08  0.225E-08  0.225E-08
   8.965  0.200E-05  0.998E-06  0.998E-06
   8.967  0.120E-03  0.599E-04  0.599E-04
   8.969  0.972E-03  0.486E-03  0.486E-03
   8.971  0.107E-02  0.536E-03  0.536E-03
   8.973  0.178E-03  0.889E-04  0.889E-04
   8.975  0.689E-03  0.345E-03  0.345E-03
   8.977  0.746E-02  0.373E-02  0.373E-02
   8.979  0.111E-01  0.554E-02  0.554E-02
   8.981  0.228E-02  0.114E-02  0.114E-02
   8.983  0.262E-02  0.131E-02  0.131E-02
   8.985  0.158E-01  0.788E-02  0.788E-02
   8.987  0.131E-01  0.657E-02  0.657E-02
   8.989  0.148E-02  0.741E-03  0.741E-03
   8.991  0.242E-04  0.121E-04  0.121E-04
   8.993  0.388E-05  0.194E-05  0.194E-05
   8.995  0.153E-05  0.766E-06  0.766E-06
   8.997  0.994E-07  0.497E-07  0.497E-07
   8.999  0.272E-05  0.136E-05  0.136E-05
   9.001  0.254E-03  0.127E-03  0.127E-03
   9.003  0.322E-02  0.161E-02  0.161E-02
   9.005  0.563E-02  0.281E-02  0.281E-02
   9.007  0.229E-02  0.114E-02  0.114E-02
   9.009  0.124E-02  0.620E-03  0.620E-03
   9.011  0.193E-03  0.965E-04  0.965E-04
   9.013  0.420E-05  0.210E-05  0.210E-05
   9.015  0.251E-07  0.126E-07  0.126E-07
   9.017  0.509E-07  0.254E-07  0.254E-07
   9.019  0.276E-07  0.138E-07  0.138E-07
   9.021  0.203E-08  0.101E-08  0.101E-08
   9.023  0.202E-10  0.101E-10  0.101E-10
   9.025  0.275E-13  0.137E-13  0.137E-13
   9.027  0.506E-17  0.253E-17  0.253E-17
   9.029  0.132E-21  0.659E-22  0.659E-22
   9.031  0.198E-22  0.990E-23  0.990E-23
   9.033  0.204E-22  0.102E-22  0.102E-22
   9.035  0.982E-21  0.491E-21  0.491E-21
   9.037  0.151E-15  0.756E-16  0.756E-16
   9.039  0.316E-11  0.158E-11  0.158E-11
   9.041  0.893E-08  0.447E-08  0.447E-08
   9.043  0.342E-05  0.171E-05  0.171E-05
   9.045  0.177E-03  0.885E-04  0.885E-04
   9.047  0.124E-02  0.620E-03  0.620E-03
   9.049  0.118E-02  0.588E-03  0.588E-03
   9.051  0.151E-03  0.755E-04  0.755E-04
   9.053  0.262E-05  0.131E-05  0.131E-05
   9.055  0.692E-06  0.346E-06  0.346E-06
   9.057  0.106E-03  0.528E-04  0.528E-04
   9.059  0.220E-02  0.110E-02  0.110E-02
   9.061  0.620E-02  0.310E-02  0.310E-02
   9.063  0.238E-02  0.119E-02  0.119E-02
   9.065  0.913E-03  0.457E-03  0.457E-03
   9.067  0.778E-02  0.389E-02  0.389E-02
   9.069  0.104E-01  0.518E-02  0.518E-02
   9.071  0.251E-02  0.126E-02  0.126E-02
   9.073  0.968E-02  0.484E-02  0.484E-02
   9.075  0.194E-01  0.968E-02  0.968E-02
   9.077  0.527E-02  0.263E-02  0.263E-02
   9.079  0.194E-03  0.969E-04  0.969E-04
   9.081  0.966E-06  0.483E-06  0.483E-06
   9.083  0.631E-07  0.315E-07  0.315E-07
   9.085  0.137E-04  0.686E-05  0.686E-05
   9.087  0.408E-03  0.204E-03  0.204E-03
   9.089  0.164E-02  0.820E-03  0.820E-03
   9.091  0.893E-03  0.447E-03  0.447E-03
   9.093  0.658E-04  0.329E-04  0.329E-04
   9.095  0.657E-06  0.328E-06  0.328E-06
   9.097  0.886E-09  0.443E-09  0.443E-09
   9.099  0.162E-12  0.810E-13  0.810E-13
   9.101  0.400E-17  0.200E-17  0.200E-17
   9.103  0.210E-21  0.105E-21  0.105E-21
   9.105  0.241E-22  0.121E-22  0.121E-22
   9.107  0.456E-24  0.228E-24  0.228E-24
   9.109  0.411E-15  0.206E-15  0.206E-15
   9.111  0.928E-11  0.464E-11  0.464E-11
   9.113  0.283E-07  0.142E-07  0.142E-07
   9.115  0.117E-04  0.586E-05  0.586E-05
   9.117  0.656E-03  0.328E-03  0.328E-03
   9.119  0.496E-02  0.248E-02  0.248E-02
   9.121  0.509E-02  0.254E-02  0.254E-02
   9.123  0.705E-03  0.353E-03  0.353E-03
   9.125  0.132E-04  0.662E-05  0.662E-05
   9.127  0.112E-05  0.559E-06  0.559E-06
   9.129  0.940E-04  0.470E-04  0.470E-04
   9.131  0.110E-02  0.552E-03  0.552E-03
   9.133  0.175E-02  0.877E-03  0.877E-03
   9.135  0.377E-03  0.188E-03  0.188E-03
   9.137  0.110E-04  0.548E-05  0.548E-05
   9.139  0.432E-07  0.216E-07  0.216E-07
   9.141  0.230E-10  0.115E-10  0.115E-10
   9.143  0.166E-14  0.830E-15  0.830E-15
   9.145  0.230E-19  0.115E-19  0.115E-19
   9.147  0.105E-14  0.524E-15  0.524E-15
   9.149  0.218E-10  0.109E-10  0.109E-10
   9.151  0.615E-07  0.308E-07  0.308E-07
   9.153  0.235E-04  0.117E-04  0.117E-04
   9.155  0.121E-02  0.606E-03  0.606E-03
   9.157  0.846E-02  0.423E-02  0.423E-02
   9.159  0.800E-02  0.400E-02  0.400E-02
   9.161  0.103E-02  0.514E-03  0.514E-03
   9.163  0.617E-03  0.309E-03  0.309E-03
   9.165  0.944E-02  0.472E-02  0.472E-02
   9.167  0.201E-01  0.101E-01  0.101E-01
   9.169  0.581E-02  0.290E-02  0.290E-02
   9.171  0.227E-03  0.113E-03  0.113E-03
   9.173  0.341E-04  0.171E-04  0.171E-04
   9.175  0.714E-03  0.357E-03  0.357E-03
   9.177  0.221E-02  0.110E-02  0.110E-02
   9.179  0.314E-02  0.157E-02  0.157E-02
   9.181  0.647E-02  0.324E-02  0.324E-02
   9.183  0.242E-02  0.121E-02  0.121E-02
   9.185  0.124E-03  0.618E-04  0.618E-04
   9.187  0.853E-06  0.427E-06  0.427E-06
   9.189  0.797E-09  0.399E-09  0.399E-09
   9.191  0.101E-12  0.504E-13  0.504E-13
   9.193  0.172E-17  0.862E-18  0.862E-18
   9.195  0.599E-26  0.300E-26  0.300E-26
   9.197  0.431E-24  0.216E-24  0.216E-24
   9.199  0.420E-23  0.210E-23  0.210E-23
   9.201  0.554E-23  0.277E-23  0.277E-23
   9.203  0.121E-23  0.605E-24  0.605E-24
   9.205  0.335E-23  0.167E-23  0.167E-23
   9.207  0.672E-23  0.336E-23  0.336E-23
   9.209  0.184E-23  0.919E-24  0.919E-24
   9.211  0.288E-18  0.144E-18  0.144E-18
   9.213  0.192E-13  0.959E-14  0.959E-14
   9.215  0.173E-09  0.864E-10  0.864E-10
   9.217  0.210E-06  0.105E-06  0.105E-06
   9.219  0.347E-04  0.174E-04  0.174E-04
   9.221  0.774E-03  0.387E-03  0.387E-03
   9.223  0.234E-02  0.117E-02  0.117E-02
   9.225  0.956E-03  0.478E-03  0.478E-03
   9.227  0.529E-04  0.264E-04  0.264E-04
   9.229  0.396E-06  0.198E-06  0.198E-06
   9.231  0.401E-09  0.201E-09  0.201E-09
   9.233  0.185E-12  0.923E-13  0.923E-13
   9.235  0.974E-09  0.487E-09  0.487E-09
   9.237  0.101E-05  0.506E-06  0.506E-06
   9.239  0.150E-03  0.752E-04  0.752E-04
   9.241  0.340E-02  0.170E-02  0.170E-02
   9.243  0.127E-01  0.637E-02  0.637E-02
   9.245  0.816E-02  0.408E-02  0.408E-02
   9.247  0.846E-03  0.423E-03  0.423E-03
   9.249  0.131E-04  0.653E-05  0.653E-05
   9.251  0.287E-07  0.143E-07  0.143E-07
   9.253  0.374E-06  0.187E-06  0.187E-06
   9.255  0.101E-03  0.505E-04  0.505E-04
   9.257  0.369E-02  0.185E-02  0.185E-02
   9.259  0.182E-01  0.912E-02  0.912E-02
   9.261  0.122E-01  0.611E-02  0.611E-02
   9.263  0.111E-02  0.553E-03  0.553E-03
   9.265  0.157E-04  0.783E-05  0.783E-05
   9.267  0.162E-03  0.811E-04  0.811E-04
   9.269  0.168E-02  0.841E-03  0.841E-03
   9.271  0.236E-02  0.118E-02  0.118E-02
   9.273  0.449E-03  0.224E-03  0.224E-03
   9.275  0.115E-04  0.577E-05  0.577E-05
   9.277  0.402E-07  0.201E-07  0.201E-07
   9.279  0.189E-10  0.946E-11  0.946E-11
   9.281  0.121E-14  0.603E-15  0.603E-15
   9.283  0.104E-19  0.520E-20  0.520E-20
   9.285  0.000E+00  0.000E+00  0.000E+00
   9.287  0.197E-35  0.983E-36  0.983E-36
   9.289  0.659E-31  0.329E-31  0.329E-31
   9.291  0.112E-18  0.560E-19  0.560E-19
   9.293  0.978E-14  0.489E-14  0.489E-14
   9.295  0.116E-09  0.578E-10  0.578E-10
   9.297  0.185E-06  0.923E-07  0.923E-07
   9.299  0.399E-04  0.200E-04  0.200E-04
   9.301  0.117E-02  0.585E-03  0.585E-03
   9.303  0.463E-02  0.232E-02  0.232E-02
   9.305  0.248E-02  0.124E-02  0.124E-02
   9.307  0.180E-03  0.901E-04  0.901E-04
   9.309  0.177E-05  0.885E-06  0.885E-06
   9.311  0.545E-08  0.273E-08  0.273E-08
   9.313  0.191E-05  0.953E-06  0.953E-06
   9.315  0.159E-03  0.797E-04  0.797E-04
   9.317  0.192E-02  0.961E-03  0.961E-03
   9.319  0.506E-02  0.253E-02  0.253E-02
   9.321  0.580E-02  0.290E-02  0.290E-02
   9.323  0.160E-02  0.801E-03  0.801E-03
   9.325  0.650E-04  0.325E-04  0.325E-04
   9.327  0.360E-06  0.180E-06  0.180E-06
   9.329  0.270E-09  0.135E-09  0.135E-09
   9.331  0.274E-13  0.137E-13  0.137E-13
   9.333  0.376E-18  0.188E-18  0.188E-18
   9.335  0.168E-19  0.839E-20  0.839E-20
   9.337  0.241E-14  0.120E-14  0.120E-14
   9.339  0.472E-10  0.236E-10  0.236E-10
   9.341  0.125E-06  0.626E-07  0.626E-07
   9.343  0.449E-04  0.224E-04  0.224E-04
   9.345  0.218E-02  0.109E-02  0.109E-02
   9.347  0.143E-01  0.716E-02  0.716E-02
   9.349  0.127E-01  0.637E-02  0.637E-02
   9.351  0.153E-02  0.767E-03  0.767E-03
   9.353  0.270E-04  0.135E-04  0.135E-04
   9.355  0.168E-03  0.840E-04  0.840E-04
   9.357  0.187E-02  0.937E-03  0.937E-03
   9.359  0.283E-02  0.141E-02  0.141E-02
   9.361  0.579E-03  0.290E-03  0.290E-03
   9.363  0.124E-03  0.620E-04  0.620E-04
   9.365  0.159E-02  0.795E-03  0.795E-03
   9.367  0.316E-02  0.158E-02  0.158E-02
   9.369  0.851E-03  0.426E-03  0.426E-03
   9.371  0.310E-04  0.155E-04  0.155E-04
   9.373  0.153E-06  0.765E-07  0.765E-07
   9.375  0.387E-08  0.193E-08  0.193E-08
   9.377  0.206E-05  0.103E-05  0.103E-05
   9.379  0.152E-03  0.761E-04  0.761E-04
   9.381  0.152E-02  0.762E-03  0.762E-03
   9.383  0.206E-02  0.103E-02  0.103E-02
   9.385  0.378E-03  0.189E-03  0.189E-03
   9.387  0.939E-05  0.470E-05  0.470E-05
   9.389  0.315E-07  0.158E-07  0.158E-07
   9.391  0.143E-10  0.717E-11  0.717E-11
   9.393  0.413E-13  0.206E-13  0.206E-13
   9.395  0.281E-09  0.140E-09  0.140E-09
   9.397  0.264E-06  0.132E-06  0.132E-06
   9.399  0.336E-04  0.168E-04  0.168E-04
   9.401  0.578E-03  0.289E-03  0.289E-03
   9.403  0.135E-02  0.674E-03  0.674E-03
   9.405  0.425E-03  0.213E-03  0.213E-03
   9.407  0.182E-04  0.909E-05  0.909E-05
   9.409  0.113E-04  0.565E-05  0.565E-05
   9.411  0.488E-03  0.244E-03  0.244E-03
   9.413  0.288E-02  0.144E-02  0.144E-02
   9.415  0.233E-02  0.116E-02  0.116E-02
   9.417  0.149E-02  0.745E-03  0.745E-03
   9.419  0.909E-02  0.455E-02  0.455E-02
   9.421  0.906E-02  0.453E-02  0.453E-02
   9.423  0.160E-02  0.802E-03  0.802E-03
   9.425  0.497E-03  0.249E-03  0.249E-03
   9.427  0.778E-04  0.389E-04  0.389E-04
   9.429  0.772E-05  0.386E-05  0.386E-05
   9.431  0.119E-03  0.596E-04  0.596E-04
   9.433  0.321E-03  0.160E-03  0.160E-03
   9.435  0.117E-03  0.584E-04  0.584E-04
   9.437  0.576E-05  0.288E-05  0.288E-05
   9.439  0.384E-07  0.192E-07  0.192E-07
   9.441  0.421E-08  0.210E-08  0.210E-08
   9.443  0.646E-06  0.323E-06  0.323E-06
   9.445  0.138E-04  0.688E-05  0.688E-05
   9.447  0.448E-04  0.224E-04  0.224E-04
   9.449  0.359E-04  0.180E-04  0.180E-04
   9.451  0.114E-04  0.571E-05  0.571E-05
   9.453  0.127E-03  0.636E-04  0.636E-04
   9.455  0.165E-02  0.825E-03  0.825E-03
   9.457  0.398E-02  0.199E-02  0.199E-02
   9.459  0.508E-02  0.254E-02  0.254E-02
   9.461  0.223E-02  0.112E-02  0.112E-02
   9.463  0.353E-03  0.176E-03  0.176E-03
   9.465  0.813E-03  0.406E-03  0.406E-03
   9.467  0.446E-03  0.223E-03  0.223E-03
   9.469  0.494E-04  0.247E-04  0.247E-04
   9.471  0.484E-05  0.242E-05  0.242E-05
   9.473  0.158E-06  0.791E-07  0.791E-07
   9.475  0.775E-09  0.387E-09  0.387E-09
   9.477  0.187E-07  0.936E-08  0.936E-08
   9.479  0.156E-05  0.781E-06  0.781E-06
   9.481  0.176E-04  0.882E-05  0.882E-05
   9.483  0.297E-04  0.149E-04  0.149E-04
   9.485  0.160E-03  0.801E-04  0.801E-04
   9.487  0.117E-02  0.583E-03  0.583E-03
   9.489  0.119E-02  0.594E-03  0.594E-03
   9.491  0.164E-03  0.820E-04  0.820E-04
   9.493  0.310E-05  0.155E-05  0.155E-05
   9.495  0.579E-06  0.290E-06  0.290E-06
   9.497  0.263E-04  0.132E-04  0.132E-04
   9.499  0.192E-03  0.959E-04  0.959E-04
   9.501  0.189E-03  0.947E-04  0.947E-04
   9.503  0.253E-04  0.127E-04  0.127E-04
   9.505  0.458E-06  0.229E-06  0.229E-06
   9.507  0.112E-08  0.561E-09  0.561E-09
   9.509  0.372E-12  0.186E-12  0.186E-12
   9.511  0.167E-16  0.833E-17  0.833E-17
   9.513  0.331E-27  0.166E-27  0.166E-27
   9.515  0.211E-30  0.106E-30  0.106E-30
   9.517  0.183E-34  0.913E-35  0.913E-35
   9.519  0.141E-34  0.704E-35  0.704E-35
   9.521  0.199E-30  0.994E-31  0.994E-31
   9.523  0.380E-27  0.190E-27  0.190E-27
   9.525  0.984E-25  0.492E-25  0.492E-25
   9.527  0.344E-23  0.172E-23  0.172E-23
   9.529  0.163E-22  0.816E-23  0.816E-23
   9.531  0.105E-22  0.523E-23  0.523E-23
   9.533  0.909E-24  0.454E-24  0.454E-24
   9.535  0.107E-25  0.534E-26  0.534E-26
   9.537  0.170E-28  0.848E-29  0.848E-29
   9.539  0.365E-32  0.183E-32  0.183E-32
   9.541  0.390E-31  0.195E-31  0.195E-31
   9.543  0.167E-27  0.836E-28  0.836E-28
   9.545  0.970E-25  0.485E-25  0.485E-25
   9.547  0.761E-23  0.380E-23  0.380E-23
   9.549  0.808E-22  0.404E-22  0.404E-22
   9.551  0.116E-21  0.581E-22  0.581E-22
   9.553  0.226E-22  0.113E-22  0.113E-22
   9.555  0.104E-23  0.518E-24  0.518E-24
   9.557  0.668E-24  0.334E-24  0.334E-24
   9.559  0.136E-24  0.682E-25  0.682E-25
   9.561  0.378E-26  0.189E-26  0.189E-26
   9.563  0.142E-28  0.708E-29  0.708E-29
   9.565  0.719E-32  0.359E-32  0.359E-32
   9.567  0.494E-36  0.247E-36  0.247E-36
   9.569  0.459E-41  0.229E-41  0.229E-41
   9.571  0.000E+00  0.000E+00  0.000E+00
   9.573  0.000E+00  0.000E+00  0.000E+00
   9.575  0.320E-38  0.160E-38  0.160E-38
   9.577  0.151E-33  0.753E-34  0.753E-34
   9.579  0.961E-30  0.480E-30  0.480E-30
   9.581  0.829E-27  0.415E-27  0.415E-27
   9.583  0.969E-25  0.484E-25  0.484E-25
   9.585  0.153E-23  0.766E-24  0.766E-24
   9.587  0.328E-23  0.164E-23  0.164E-23
   9.589  0.949E-24  0.474E-24  0.474E-24
   9.591  0.540E-25  0.270E-25  0.270E-25
   9.593  0.240E-23  0.120E-23  0.120E-23
   9.595  0.465E-22  0.232E-22  0.232E-22
   9.597  0.122E-21  0.609E-22  0.609E-22
   9.599  0.431E-22  0.216E-22  0.216E-22
   9.601  0.207E-23  0.103E-23  0.103E-23
   9.603  0.134E-25  0.671E-26  0.671E-26
   9.605  0.118E-28  0.590E-29  0.590E-29
   9.607  0.140E-32  0.701E-33  0.701E-33
   9.609  0.226E-37  0.113E-37  0.113E-37
   9.611  0.000E+00  0.000E+00  0.000E+00
   9.613  0.986E-40  0.493E-40  0.493E-40
   9.615  0.106E-34  0.532E-35  0.532E-35
   9.617  0.155E-30  0.776E-31  0.776E-31
   9.619  0.306E-27  0.153E-27  0.153E-27
   9.621  0.819E-25  0.409E-25  0.409E-25
   9.623  0.296E-23  0.148E-23  0.148E-23
   9.625  0.145E-22  0.725E-23  0.725E-23
   9.627  0.960E-23  0.480E-23  0.480E-23
   9.629  0.861E-24  0.430E-24  0.430E-24
   9.631  0.104E-25  0.522E-26  0.522E-26
   9.633  0.171E-28  0.857E-29  0.857E-29
   9.635  0.381E-32  0.191E-32  0.191E-32
   9.637  0.115E-36  0.573E-37  0.573E-37
   9.639  0.120E-39  0.598E-40  0.598E-40
   9.641  0.102E-16  0.512E-17  0.512E-17
   9.643  0.528E-12  0.264E-12  0.264E-12
   9.645  0.368E-08  0.184E-08  0.184E-08
   9.647  0.348E-05  0.174E-05  0.174E-05
   9.649  0.445E-03  0.222E-03  0.222E-03
   9.651  0.785E-02  0.392E-02  0.392E-02
   9.653  0.220E-01  0.110E-01  0.110E-01
   9.655  0.190E-01  0.949E-02  0.949E-02
   9.657  0.610E-02  0.305E-02  0.305E-02
   9.659  0.350E-03  0.175E-03  0.175E-03
   9.661  0.282E-05  0.141E-05  0.141E-05
   9.663  0.307E-08  0.154E-08  0.154E-08
   9.665  0.477E-10  0.238E-10  0.238E-10
   9.667  0.111E-06  0.557E-07  0.557E-07
   9.669  0.357E-04  0.178E-04  0.178E-04
   9.671  0.157E-02  0.785E-03  0.785E-03
   9.673  0.109E-01  0.545E-02  0.545E-02
   9.675  0.238E-01  0.119E-01  0.119E-01
   9.677  0.207E-01  0.103E-01  0.103E-01
   9.679  0.324E-02  0.162E-02  0.162E-02
   9.681  0.708E-04  0.354E-04  0.354E-04
   9.683  0.210E-06  0.105E-06  0.105E-06
   9.685  0.843E-10  0.422E-10  0.422E-10
   9.687  0.458E-14  0.229E-14  0.229E-14
   9.689  0.625E-18  0.313E-18  0.313E-18
   9.691  0.433E-13  0.216E-13  0.216E-13
   9.693  0.428E-09  0.214E-09  0.214E-09
   9.695  0.574E-06  0.287E-06  0.287E-06
   9.697  0.104E-03  0.520E-04  0.520E-04
   9.699  0.255E-02  0.128E-02  0.128E-02
   9.701  0.848E-02  0.424E-02  0.424E-02
   9.703  0.381E-02  0.191E-02  0.191E-02
   9.705  0.232E-03  0.116E-03  0.116E-03
   9.707  0.191E-05  0.955E-06  0.955E-06
   9.709  0.213E-08  0.106E-08  0.106E-08
   9.711  0.321E-12  0.160E-12  0.160E-12
   9.713  0.100E-16  0.502E-17  0.502E-17
   9.715  0.234E-12  0.117E-12  0.117E-12
   9.717  0.211E-08  0.105E-08  0.105E-08
   9.719  0.257E-05  0.129E-05  0.129E-05
   9.721  0.426E-03  0.213E-03  0.213E-03
   9.723  0.952E-02  0.476E-02  0.476E-02
   9.725  0.288E-01  0.144E-01  0.144E-01
   9.727  0.118E-01  0.590E-02  0.590E-02
   9.729  0.663E-03  0.332E-03  0.332E-03
   9.731  0.565E-03  0.282E-03  0.282E-03
   9.733  0.504E-02  0.252E-02  0.252E-02
   9.735  0.614E-02  0.307E-02  0.307E-02
   9.737  0.101E-02  0.506E-03  0.506E-03
   9.739  0.226E-04  0.113E-04  0.113E-04
   9.741  0.682E-07  0.341E-07  0.341E-07
   9.743  0.279E-10  0.139E-10  0.139E-10
   9.745  0.154E-14  0.771E-15  0.771E-15
   9.747  0.115E-19  0.577E-20  0.577E-20
   9.749  0.285E-22  0.142E-22  0.142E-22
   9.751  0.216E-22  0.108E-22  0.108E-22
   9.753  0.306E-23  0.153E-23  0.153E-23
   9.755  0.119E-22  0.595E-23  0.595E-23
   9.757  0.225E-22  0.112E-22  0.112E-22
   9.759  0.190E-18  0.949E-19  0.949E-19
   9.761  0.158E-13  0.791E-14  0.791E-14
   9.763  0.178E-09  0.892E-10  0.892E-10
   9.765  0.272E-06  0.136E-06  0.136E-06
   9.767  0.562E-04  0.281E-04  0.281E-04
   9.769  0.157E-02  0.786E-03  0.786E-03
   9.771  0.595E-02  0.297E-02  0.297E-02
   9.773  0.305E-02  0.152E-02  0.152E-02
   9.775  0.398E-03  0.199E-03  0.199E-03
   9.777  0.555E-02  0.277E-02  0.277E-02
   9.779  0.222E-01  0.111E-01  0.111E-01
   9.781  0.120E-01  0.601E-02  0.601E-02
   9.783  0.881E-03  0.441E-03  0.441E-03
   9.785  0.874E-05  0.437E-05  0.437E-05
   9.787  0.436E-06  0.218E-06  0.218E-06
   9.789  0.122E-03  0.610E-04  0.610E-04
   9.791  0.533E-02  0.266E-02  0.266E-02
   9.793  0.363E-01  0.181E-01  0.181E-01
   9.795  0.385E-01  0.192E-01  0.192E-01
   9.797  0.614E-02  0.307E-02  0.307E-02
   9.799  0.141E-03  0.706E-04  0.706E-04
   9.801  0.380E-05  0.190E-05  0.190E-05
   9.803  0.524E-03  0.262E-03  0.262E-03
   9.805  0.111E-01  0.554E-02  0.554E-02
   9.807  0.318E-01  0.159E-01  0.159E-01
   9.809  0.129E-01  0.647E-02  0.647E-02
   9.811  0.485E-02  0.242E-02  0.242E-02
   9.813  0.382E-02  0.191E-02  0.191E-02
   9.815  0.469E-03  0.235E-03  0.235E-03
   9.817  0.783E-05  0.391E-05  0.391E-05
   9.819  0.139E-04  0.694E-05  0.694E-05
   9.821  0.152E-02  0.762E-03  0.762E-03
   9.823  0.227E-01  0.113E-01  0.113E-01
   9.825  0.456E-01  0.228E-01  0.228E-01
   9.827  0.131E-01  0.655E-02  0.655E-02
   9.829  0.100E-01  0.501E-02  0.501E-02
   9.831  0.537E-01  0.268E-01  0.268E-01
   9.833  0.929E-01  0.465E-01  0.465E-01
   9.835  0.255E-01  0.127E-01  0.127E-01
   9.837  0.968E-03  0.484E-03  0.484E-03
   9.839  0.503E-05  0.251E-05  0.251E-05
   9.841  0.356E-08  0.178E-08  0.178E-08
   9.843  0.133E-09  0.664E-10  0.664E-10
   9.845  0.343E-06  0.171E-06  0.171E-06
   9.847  0.120E-03  0.599E-04  0.599E-04
   9.849  0.568E-02  0.284E-02  0.284E-02
   9.851  0.364E-01  0.182E-01  0.182E-01
   9.853  0.325E-01  0.162E-01  0.162E-01
   9.855  0.774E-02  0.387E-02  0.387E-02
   9.857  0.252E-02  0.126E-02  0.126E-02
   9.859  0.221E-02  0.111E-02  0.111E-02
   9.861  0.264E-01  0.132E-01  0.132E-01
   9.863  0.468E-01  0.234E-01  0.234E-01
   9.865  0.112E-01  0.561E-02  0.561E-02
   9.867  0.365E-03  0.182E-03  0.182E-03
   9.869  0.161E-05  0.807E-06  0.807E-06
   9.871  0.658E-05  0.329E-05  0.329E-05
   9.873  0.478E-03  0.239E-03  0.239E-03
   9.875  0.514E-02  0.257E-02  0.257E-02
   9.877  0.219E-01  0.109E-01  0.109E-01
   9.879  0.840E-01  0.420E-01  0.420E-01
   9.881  0.848E-01  0.424E-01  0.424E-01
   9.883  0.193E-01  0.963E-02  0.963E-02
   9.885  0.837E-03  0.419E-03  0.419E-03
   9.887  0.567E-05  0.283E-05  0.283E-05
   9.889  0.542E-08  0.271E-08  0.271E-08
   9.891  0.713E-12  0.356E-12  0.356E-12
   9.893  0.118E-10  0.592E-11  0.592E-11
   9.895  0.299E-07  0.149E-07  0.149E-07
   9.897  0.102E-04  0.510E-05  0.510E-05
   9.899  0.471E-03  0.236E-03  0.236E-03
   9.901  0.295E-02  0.147E-02  0.147E-02
   9.903  0.249E-02  0.125E-02  0.125E-02
   9.905  0.285E-03  0.143E-03  0.143E-03
   9.907  0.742E-05  0.371E-05  0.371E-05
   9.909  0.532E-03  0.266E-03  0.266E-03
   9.911  0.128E-01  0.639E-02  0.639E-02
   9.913  0.418E-01  0.209E-01  0.209E-01
   9.915  0.287E-01  0.143E-01  0.143E-01
   9.917  0.458E-01  0.229E-01  0.229E-01
   9.919  0.260E-01  0.130E-01  0.130E-01
   9.921  0.215E-02  0.108E-02  0.108E-02
   9.923  0.200E-02  0.999E-03  0.999E-03
   9.925  0.505E-02  0.253E-02  0.253E-02
   9.927  0.175E-02  0.874E-03  0.874E-03
   9.929  0.818E-04  0.409E-04  0.409E-04
   9.931  0.518E-06  0.259E-06  0.259E-06
   9.933  0.444E-09  0.222E-09  0.222E-09
   9.935  0.516E-13  0.258E-13  0.258E-13
   9.937  0.810E-18  0.405E-18  0.405E-18
   9.939  0.386E-17  0.193E-17  0.193E-17
   9.941  0.172E-12  0.858E-13  0.858E-13
   9.943  0.104E-08  0.521E-09  0.521E-09
   9.945  0.899E-06  0.450E-06  0.450E-06
   9.947  0.128E-03  0.641E-04  0.641E-04
   9.949  0.407E-02  0.204E-02  0.204E-02
   9.951  0.297E-01  0.149E-01  0.149E-01
   9.953  0.371E-01  0.185E-01  0.185E-01
   9.955  0.665E-02  0.332E-02  0.332E-02
   9.957  0.163E-03  0.817E-04  0.817E-04
   9.959  0.545E-06  0.272E-06  0.272E-06
   9.961  0.246E-09  0.123E-09  0.123E-09
   9.963  0.216E-13  0.108E-13  0.108E-13
   9.965  0.801E-10  0.401E-10  0.401E-10
   9.967  0.131E-06  0.657E-07  0.657E-07
   9.969  0.292E-04  0.146E-04  0.146E-04
   9.971  0.877E-03  0.438E-03  0.438E-03
   9.973  0.357E-02  0.178E-02  0.178E-02
   9.975  0.205E-02  0.102E-02  0.102E-02
   9.977  0.440E-02  0.220E-02  0.220E-02
   9.979  0.330E-01  0.165E-01  0.165E-01
   9.981  0.543E-01  0.271E-01  0.271E-01
   9.983  0.232E-01  0.116E-01  0.116E-01
   9.985  0.188E-02  0.940E-03  0.940E-03
   9.987  0.225E-04  0.113E-04  0.113E-04
   9.989  0.614E-05  0.307E-05  0.307E-05
   9.991  0.894E-03  0.447E-03  0.447E-03
   9.993  0.195E-01  0.975E-02  0.975E-02
   9.995  0.700E-01  0.350E-01  0.350E-01
   9.997  0.447E-01  0.224E-01  0.224E-01
   9.999  0.513E-02  0.257E-02  0.257E-02
  10.001  0.182E-02  0.909E-03  0.909E-03
  10.003  0.160E-02  0.799E-03  0.799E-03
  10.005  0.199E-03  0.995E-04  0.995E-04
  10.007  0.335E-05  0.168E-05  0.168E-05
  10.009  0.765E-08  0.382E-08  0.382E-08
  10.011  0.258E-11  0.129E-11  0.129E-11
  10.013  0.125E-08  0.625E-09  0.625E-09
  10.015  0.961E-06  0.480E-06  0.480E-06
  10.017  0.100E-03  0.500E-04  0.500E-04
  10.019  0.141E-02  0.704E-03  0.704E-03
  10.021  0.268E-02  0.134E-02  0.134E-02
  10.023  0.692E-03  0.346E-03  0.346E-03
  10.025  0.242E-04  0.121E-04  0.121E-04
  10.027  0.114E-06  0.571E-07  0.571E-07
  10.029  0.730E-10  0.365E-10  0.365E-10
  10.031  0.635E-14  0.317E-14  0.317E-14
  10.033  0.930E-12  0.465E-12  0.465E-12
  10.035  0.416E-08  0.208E-08  0.208E-08
  10.037  0.273E-05  0.136E-05  0.136E-05
  10.039  0.314E-03  0.157E-03  0.157E-03
  10.041  0.792E-02  0.396E-02  0.396E-02
  10.043  0.404E-01  0.202E-01  0.202E-01
  10.045  0.328E-01  0.164E-01  0.164E-01
  10.047  0.376E-02  0.188E-02  0.188E-02
  10.049  0.599E-04  0.300E-04  0.300E-04
  10.051  0.769E-04  0.384E-04  0.384E-04
  10.053  0.114E-02  0.571E-03  0.571E-03
  10.055  0.272E-02  0.136E-02  0.136E-02
  10.057  0.104E-02  0.520E-03  0.520E-03
  10.059  0.657E-04  0.329E-04  0.329E-04
  10.061  0.321E-03  0.161E-03  0.161E-03
  10.063  0.366E-02  0.183E-02  0.183E-02
  10.065  0.653E-02  0.326E-02  0.326E-02
  10.067  0.311E-02  0.156E-02  0.156E-02
  10.069  0.517E-03  0.259E-03  0.259E-03
  10.071  0.161E-04  0.803E-05  0.803E-05
  10.073  0.707E-07  0.354E-07  0.354E-07
  10.075  0.424E-10  0.212E-10  0.212E-10
  10.077  0.344E-14  0.172E-14  0.172E-14
  10.079  0.379E-19  0.189E-19  0.189E-19
  10.081  0.125E-23  0.627E-24  0.627E-24
  10.083  0.361E-18  0.181E-18  0.181E-18
  10.085  0.366E-13  0.183E-13  0.183E-13
  10.087  0.502E-09  0.251E-09  0.251E-09
  10.089  0.932E-06  0.466E-06  0.466E-06
  10.091  0.234E-03  0.117E-03  0.117E-03
  10.093  0.796E-02  0.398E-02  0.398E-02
  10.095  0.366E-01  0.183E-01  0.183E-01
  10.097  0.228E-01  0.114E-01  0.114E-01
  10.099  0.197E-02  0.983E-03  0.983E-03
  10.101  0.141E-02  0.704E-03  0.704E-03
  10.103  0.590E-02  0.295E-02  0.295E-02
  10.105  0.340E-02  0.170E-02  0.170E-02
  10.107  0.303E-03  0.151E-03  0.151E-03
  10.109  0.800E-03  0.400E-03  0.400E-03
  10.111  0.257E-02  0.128E-02  0.128E-02
  10.113  0.128E-02  0.641E-03  0.641E-03
  10.115  0.962E-04  0.481E-04  0.481E-04
  10.117  0.104E-05  0.522E-06  0.522E-06
  10.119  0.159E-08  0.797E-09  0.797E-09
  10.121  0.336E-12  0.168E-12  0.168E-12
  10.123  0.966E-17  0.483E-17  0.483E-17
  10.125  0.175E-28  0.873E-29  0.873E-29
  10.127  0.153E-13  0.766E-14  0.766E-14
  10.129  0.347E-09  0.174E-09  0.174E-09
  10.131  0.107E-05  0.533E-06  0.533E-06
  10.133  0.443E-03  0.221E-03  0.221E-03
  10.135  0.249E-01  0.124E-01  0.124E-01
  10.137  0.189E+00  0.946E-01  0.946E-01
  10.139  0.195E+00  0.973E-01  0.973E-01
  10.141  0.271E-01  0.136E-01  0.136E-01
  10.143  0.511E-03  0.256E-03  0.256E-03
  10.145  0.955E-05  0.478E-05  0.478E-05
  10.147  0.102E-02  0.508E-03  0.508E-03
  10.149  0.170E-01  0.848E-02  0.848E-02
  10.151  0.383E-01  0.192E-01  0.192E-01
  10.153  0.119E-01  0.593E-02  0.593E-02
  10.155  0.250E-02  0.125E-02  0.125E-02
  10.157  0.650E-02  0.325E-02  0.325E-02
  10.159  0.401E-02  0.200E-02  0.200E-02
  10.161  0.373E-03  0.187E-03  0.187E-03
  10.163  0.426E-03  0.213E-03  0.213E-03
  10.165  0.130E-01  0.649E-02  0.649E-02
  10.167  0.635E-01  0.318E-01  0.318E-01
  10.169  0.556E-01  0.278E-01  0.278E-01
  10.171  0.113E-01  0.563E-02  0.563E-02
  10.173  0.277E-01  0.139E-01  0.139E-01
  10.175  0.654E-01  0.327E-01  0.327E-01
  10.177  0.417E-01  0.208E-01  0.208E-01
  10.179  0.816E-02  0.408E-02  0.408E-02
  10.181  0.472E-02  0.236E-02  0.236E-02
  10.183  0.101E-01  0.504E-02  0.504E-02
  10.185  0.352E-01  0.176E-01  0.176E-01
  10.187  0.507E-01  0.253E-01  0.253E-01
  10.189  0.139E-01  0.693E-02  0.693E-02
  10.191  0.667E-02  0.333E-02  0.333E-02
  10.193  0.219E-01  0.110E-01  0.110E-01
  10.195  0.243E-01  0.121E-01  0.121E-01
  10.197  0.183E-01  0.915E-02  0.915E-02
  10.199  0.188E-01  0.938E-02  0.938E-02
  10.201  0.394E-01  0.197E-01  0.197E-01
  10.203  0.150E-01  0.748E-02  0.748E-02
  10.205  0.109E-02  0.543E-03  0.543E-03
  10.207  0.963E-02  0.481E-02  0.481E-02
  10.209  0.520E-01  0.260E-01  0.260E-01
  10.211  0.444E-01  0.222E-01  0.222E-01
  10.213  0.735E-02  0.368E-02  0.368E-02
  10.215  0.307E-02  0.153E-02  0.153E-02
  10.217  0.391E-02  0.196E-02  0.196E-02
  10.219  0.252E-01  0.126E-01  0.126E-01
  10.221  0.388E-01  0.194E-01  0.194E-01
  10.223  0.212E-01  0.106E-01  0.106E-01
  10.225  0.138E-01  0.689E-02  0.689E-02
  10.227  0.542E-01  0.271E-01  0.271E-01
  10.229  0.498E-01  0.249E-01  0.249E-01
  10.231  0.328E-01  0.164E-01  0.164E-01
  10.233  0.127E-01  0.634E-02  0.634E-02
  10.235  0.115E-02  0.576E-03  0.576E-03
  10.237  0.240E-04  0.120E-04  0.120E-04
  10.239  0.513E-03  0.257E-03  0.257E-03
  10.241  0.146E-01  0.730E-02  0.730E-02
  10.243  0.686E-01  0.343E-01  0.343E-01
  10.245  0.764E-01  0.382E-01  0.382E-01
  10.247  0.418E-01  0.209E-01  0.209E-01
  10.249  0.676E-02  0.338E-02  0.338E-02
  10.251  0.970E-03  0.485E-03  0.485E-03
  10.253  0.215E-02  0.107E-02  0.107E-02
  10.255  0.145E-01  0.726E-02  0.726E-02
  10.257  0.268E-01  0.134E-01  0.134E-01
  10.259  0.981E-02  0.490E-02  0.490E-02
  10.261  0.133E-01  0.666E-02  0.666E-02
  10.263  0.905E-02  0.453E-02  0.453E-02
  10.265  0.120E-02  0.602E-03  0.602E-03
  10.267  0.246E-02  0.123E-02  0.123E-02
  10.269  0.300E-01  0.150E-01  0.150E-01
  10.271  0.653E-01  0.327E-01  0.327E-01
  10.273  0.267E-01  0.134E-01  0.134E-01
  10.275  0.186E-02  0.929E-03  0.929E-03
  10.277  0.194E-04  0.971E-05  0.971E-05
  10.279  0.295E-07  0.147E-07  0.147E-07
  10.281  0.880E-06  0.440E-06  0.440E-06
  10.283  0.204E-03  0.102E-03  0.102E-03
  10.285  0.639E-02  0.320E-02  0.320E-02
  10.287  0.272E-01  0.136E-01  0.136E-01
  10.289  0.160E-01  0.799E-02  0.799E-02
  10.291  0.188E-02  0.939E-03  0.939E-03
  10.293  0.204E-03  0.102E-03  0.102E-03
  10.295  0.101E-02  0.505E-03  0.505E-03
  10.297  0.722E-02  0.361E-02  0.361E-02
  10.299  0.153E-01  0.764E-02  0.764E-02
  10.301  0.381E-01  0.190E-01  0.190E-01
  10.303  0.218E-01  0.109E-01  0.109E-01
  10.305  0.180E-02  0.898E-03  0.898E-03
  10.307  0.203E-02  0.101E-02  0.101E-02
  10.309  0.941E-02  0.471E-02  0.471E-02
  10.311  0.597E-02  0.299E-02  0.299E-02
  10.313  0.513E-03  0.256E-03  0.256E-03
  10.315  0.596E-05  0.298E-05  0.298E-05
  10.317  0.113E-05  0.566E-06  0.566E-06
  10.319  0.237E-03  0.119E-03  0.119E-03
  10.321  0.680E-02  0.340E-02  0.340E-02
  10.323  0.263E-01  0.132E-01  0.132E-01
  10.325  0.138E-01  0.691E-02  0.691E-02
  10.327  0.104E-02  0.518E-03  0.518E-03
  10.329  0.391E-04  0.196E-04  0.196E-04
  10.331  0.282E-04  0.141E-04  0.141E-04
  10.333  0.266E-02  0.133E-02  0.133E-02
  10.335  0.369E-01  0.184E-01  0.184E-01
  10.337  0.698E-01  0.349E-01  0.349E-01
  10.339  0.180E-01  0.899E-02  0.899E-02
  10.341  0.630E-03  0.315E-03  0.315E-03
  10.343  0.582E-05  0.291E-05  0.291E-05
  10.345  0.253E-03  0.126E-03  0.126E-03
  10.347  0.592E-02  0.296E-02  0.296E-02
  10.349  0.416E-01  0.208E-01  0.208E-01
  10.351  0.525E-01  0.263E-01  0.263E-01
  10.353  0.943E-02  0.471E-02  0.471E-02
  10.355  0.234E-03  0.117E-03  0.117E-03
  10.357  0.701E-04  0.350E-04  0.350E-04
  10.359  0.272E-02  0.136E-02  0.136E-02
  10.361  0.248E-01  0.124E-01  0.124E-01
  10.363  0.326E-01  0.163E-01  0.163E-01
  10.365  0.142E-01  0.712E-02  0.712E-02
  10.367  0.693E-02  0.346E-02  0.346E-02
  10.369  0.168E-01  0.838E-02  0.838E-02
  10.371  0.605E-01  0.303E-01  0.303E-01
  10.373  0.698E-01  0.349E-01  0.349E-01
  10.375  0.531E-01  0.266E-01  0.266E-01
  10.377  0.284E-01  0.142E-01  0.142E-01
  10.379  0.361E-02  0.181E-02  0.181E-02
  10.381  0.167E-03  0.835E-04  0.835E-04
  10.383  0.402E-03  0.201E-03  0.201E-03
  10.385  0.322E-03  0.161E-03  0.161E-03
  10.387  0.352E-04  0.176E-04  0.176E-04
  10.389  0.601E-05  0.300E-05  0.300E-05
  10.391  0.267E-04  0.134E-04  0.134E-04
  10.393  0.176E-04  0.882E-05  0.882E-05
  10.395  0.157E-05  0.787E-06  0.787E-06
  10.397  0.422E-07  0.211E-07  0.211E-07
  10.399  0.165E-04  0.823E-05  0.823E-05
  10.401  0.159E-02  0.795E-03  0.795E-03
  10.403  0.209E-01  0.105E-01  0.105E-01
  10.405  0.416E-01  0.208E-01  0.208E-01
  10.407  0.379E-01  0.189E-01  0.189E-01
  10.409  0.256E-01  0.128E-01  0.128E-01
  10.411  0.299E-02  0.150E-02  0.150E-02
  10.413  0.592E-04  0.296E-04  0.296E-04
  10.415  0.571E-03  0.285E-03  0.285E-03
  10.417  0.122E-01  0.609E-02  0.609E-02
  10.419  0.360E-01  0.180E-01  0.180E-01
  10.421  0.144E-01  0.719E-02  0.719E-02
  10.423  0.781E-03  0.391E-03  0.391E-03
  10.425  0.321E-03  0.160E-03  0.160E-03
  10.427  0.413E-02  0.206E-02  0.206E-02
  10.429  0.744E-02  0.372E-02  0.372E-02
  10.431  0.245E-02  0.122E-02  0.122E-02
  10.433  0.105E-02  0.523E-03  0.523E-03
  10.435  0.341E-03  0.171E-03  0.171E-03
  10.437  0.183E-03  0.913E-04  0.913E-04
  10.439  0.233E-03  0.116E-03  0.116E-03
  10.441  0.727E-04  0.363E-04  0.363E-04
  10.443  0.243E-03  0.121E-03  0.121E-03
  10.445  0.721E-03  0.361E-03  0.361E-03
  10.447  0.428E-03  0.214E-03  0.214E-03
  10.449  0.121E-03  0.605E-04  0.605E-04
  10.451  0.130E-03  0.648E-04  0.648E-04
  10.453  0.103E-02  0.515E-03  0.515E-03
  10.455  0.789E-02  0.395E-02  0.395E-02
  10.457  0.335E-01  0.167E-01  0.167E-01
  10.459  0.223E-01  0.111E-01  0.111E-01
  10.461  0.374E-02  0.187E-02  0.187E-02
  10.463  0.412E-02  0.206E-02  0.206E-02
  10.465  0.284E-01  0.142E-01  0.142E-01
  10.467  0.325E-01  0.162E-01  0.162E-01
  10.469  0.780E-02  0.390E-02  0.390E-02
  10.471  0.143E-02  0.716E-03  0.716E-03
  10.473  0.829E-02  0.415E-02  0.415E-02
  10.475  0.338E-01  0.169E-01  0.169E-01
  10.477  0.200E-01  0.100E-01  0.100E-01
  10.479  0.444E-02  0.222E-02  0.222E-02
  10.481  0.746E-02  0.373E-02  0.373E-02
  10.483  0.442E-01  0.221E-01  0.221E-01
  10.485  0.445E-01  0.222E-01  0.222E-01
  10.487  0.610E-02  0.305E-02  0.305E-02
  10.489  0.119E-03  0.595E-04  0.595E-04
  10.491  0.341E-03  0.171E-03  0.171E-03
  10.493  0.297E-02  0.148E-02  0.148E-02
  10.495  0.512E-02  0.256E-02  0.256E-02
  10.497  0.700E-02  0.350E-02  0.350E-02
  10.499  0.348E-02  0.174E-02  0.174E-02
  10.501  0.495E-03  0.248E-03  0.248E-03
  10.503  0.923E-03  0.461E-03  0.461E-03
  10.505  0.162E-01  0.809E-02  0.809E-02
  10.507  0.832E-01  0.416E-01  0.416E-01
  10.509  0.712E-01  0.356E-01  0.356E-01
  10.511  0.442E-01  0.221E-01  0.221E-01
  10.513  0.287E-01  0.143E-01  0.143E-01
  10.515  0.167E-01  0.836E-02  0.836E-02
  10.517  0.372E-01  0.186E-01  0.186E-01
  10.519  0.139E-01  0.697E-02  0.697E-02
  10.521  0.709E-03  0.355E-03  0.355E-03
  10.523  0.583E-04  0.291E-04  0.291E-04
  10.525  0.677E-03  0.339E-03  0.339E-03
  10.527  0.123E-02  0.614E-03  0.614E-03
  10.529  0.879E-03  0.439E-03  0.439E-03
  10.531  0.375E-02  0.187E-02  0.187E-02
  10.533  0.555E-02  0.278E-02  0.278E-02
  10.535  0.117E-02  0.587E-03  0.587E-03
  10.537  0.624E-04  0.312E-04  0.312E-04
  10.539  0.763E-03  0.382E-03  0.382E-03
  10.541  0.277E-02  0.138E-02  0.138E-02
  10.543  0.189E-02  0.944E-03  0.944E-03
  10.545  0.325E-02  0.163E-02  0.163E-02
  10.547  0.162E-01  0.808E-02  0.808E-02
  10.549  0.341E-01  0.170E-01  0.170E-01
  10.551  0.118E-01  0.592E-02  0.592E-02
  10.553  0.564E-02  0.282E-02  0.282E-02
  10.555  0.776E-02  0.388E-02  0.388E-02
  10.557  0.210E-02  0.105E-02  0.105E-02
  10.559  0.814E-04  0.407E-04  0.407E-04
  10.561  0.768E-04  0.384E-04  0.384E-04
  10.563  0.909E-03  0.455E-03  0.455E-03
  10.565  0.185E-02  0.923E-03  0.923E-03
  10.567  0.485E-02  0.243E-02  0.243E-02
  10.569  0.379E-01  0.189E-01  0.189E-01
  10.571  0.686E-01  0.343E-01  0.343E-01
  10.573  0.310E-01  0.155E-01  0.155E-01
  10.575  0.295E-02  0.148E-02  0.148E-02
  10.577  0.357E-02  0.179E-02  0.179E-02
  10.579  0.978E-02  0.489E-02  0.489E-02
  10.581  0.368E-02  0.184E-02  0.184E-02
  10.583  0.188E-03  0.939E-04  0.939E-04
  10.585  0.130E-05  0.648E-06  0.648E-06
  10.587  0.122E-08  0.612E-09  0.612E-09
  10.589  0.564E-08  0.282E-08  0.282E-08
  10.591  0.506E-06  0.253E-06  0.253E-06
  10.593  0.354E-04  0.177E-04  0.177E-04
  10.595  0.776E-03  0.388E-03  0.388E-03
  10.597  0.251E-02  0.126E-02  0.126E-02
  10.599  0.118E-02  0.592E-03  0.592E-03
  10.601  0.251E-03  0.125E-03  0.125E-03
  10.603  0.347E-02  0.173E-02  0.173E-02
  10.605  0.121E-01  0.607E-02  0.607E-02
  10.607  0.756E-02  0.378E-02  0.378E-02
  10.609  0.176E-02  0.880E-03  0.880E-03
  10.611  0.671E-03  0.335E-03  0.335E-03
  10.613  0.823E-03  0.412E-03  0.412E-03
  10.615  0.169E-03  0.847E-04  0.847E-04
  10.617  0.242E-03  0.121E-03  0.121E-03
  10.619  0.208E-02  0.104E-02  0.104E-02
  10.621  0.855E-02  0.427E-02  0.427E-02
  10.623  0.583E-01  0.291E-01  0.291E-01
  10.625  0.767E-01  0.383E-01  0.383E-01
  10.627  0.188E-01  0.940E-02  0.940E-02
  10.629  0.330E-01  0.165E-01  0.165E-01
  10.631  0.594E-01  0.297E-01  0.297E-01
  10.633  0.557E-01  0.279E-01  0.279E-01
  10.635  0.143E-01  0.715E-02  0.715E-02
  10.637  0.678E-03  0.339E-03  0.339E-03
  10.639  0.964E-04  0.482E-04  0.482E-04
  10.641  0.342E-03  0.171E-03  0.171E-03
  10.643  0.107E-01  0.533E-02  0.533E-02
  10.645  0.533E-01  0.266E-01  0.266E-01
  10.647  0.709E-01  0.354E-01  0.354E-01
  10.649  0.438E-01  0.219E-01  0.219E-01
  10.651  0.764E-02  0.382E-02  0.382E-02
  10.653  0.271E-02  0.136E-02  0.136E-02
  10.655  0.239E-02  0.120E-02  0.120E-02
  10.657  0.324E-03  0.162E-03  0.162E-03
  10.659  0.470E-03  0.235E-03  0.235E-03
  10.661  0.771E-02  0.385E-02  0.385E-02
  10.663  0.174E-01  0.868E-02  0.868E-02
  10.665  0.529E-02  0.264E-02  0.264E-02
  10.667  0.219E-03  0.109E-03  0.109E-03
  10.669  0.585E-05  0.292E-05  0.292E-05
  10.671  0.567E-05  0.283E-05  0.283E-05
  10.673  0.104E-05  0.520E-06  0.520E-06
  10.675  0.142E-04  0.709E-05  0.709E-05
  10.677  0.366E-03  0.183E-03  0.183E-03
  10.679  0.169E-02  0.847E-03  0.847E-03
  10.681  0.123E-02  0.615E-03  0.615E-03
  10.683  0.128E-03  0.642E-04  0.642E-04
  10.685  0.211E-05  0.105E-05  0.105E-05
  10.687  0.844E-04  0.422E-04  0.422E-04
  10.689  0.444E-02  0.222E-02  0.222E-02
  10.691  0.335E-01  0.167E-01  0.167E-01
  10.693  0.467E-01  0.233E-01  0.233E-01
  10.695  0.207E-01  0.103E-01  0.103E-01
  10.697  0.217E-01  0.108E-01  0.108E-01
  10.699  0.460E-01  0.230E-01  0.230E-01
  10.701  0.325E-01  0.162E-01  0.162E-01
  10.703  0.363E-01  0.181E-01  0.181E-01
  10.705  0.111E-01  0.557E-02  0.557E-02
  10.707  0.743E-03  0.372E-03  0.372E-03
  10.709  0.178E-04  0.889E-05  0.889E-05
  10.711  0.800E-05  0.400E-05  0.400E-05
  10.713  0.718E-04  0.359E-04  0.359E-04
  10.715  0.790E-03  0.395E-03  0.395E-03
  10.717  0.145E-02  0.726E-03  0.726E-03
  10.719  0.400E-03  0.200E-03  0.200E-03
  10.721  0.977E-04  0.489E-04  0.489E-04
  10.723  0.178E-02  0.888E-03  0.888E-03
  10.725  0.165E-01  0.826E-02  0.826E-02
  10.727  0.225E-01  0.113E-01  0.113E-01
  10.729  0.506E-02  0.253E-02  0.253E-02
  10.731  0.418E-02  0.209E-02  0.209E-02
  10.733  0.262E-02  0.131E-02  0.131E-02
  10.735  0.248E-03  0.124E-03  0.124E-03
  10.737  0.206E-04  0.103E-04  0.103E-04
  10.739  0.944E-05  0.472E-05  0.472E-05
  10.741  0.167E-05  0.836E-06  0.836E-06
  10.743  0.272E-04  0.136E-04  0.136E-04
  10.745  0.724E-03  0.362E-03  0.362E-03
  10.747  0.261E-02  0.130E-02  0.130E-02
  10.749  0.131E-02  0.656E-03  0.656E-03
  10.751  0.142E-02  0.712E-03  0.712E-03
  10.753  0.776E-02  0.388E-02  0.388E-02
  10.755  0.166E-01  0.831E-02  0.831E-02
  10.757  0.433E-01  0.216E-01  0.216E-01
  10.759  0.462E-01  0.231E-01  0.231E-01
  10.761  0.223E-01  0.111E-01  0.111E-01
  10.763  0.237E-02  0.118E-02  0.118E-02
  10.765  0.489E-02  0.244E-02  0.244E-02
  10.767  0.549E-01  0.274E-01  0.274E-01
  10.769  0.895E-01  0.447E-01  0.447E-01
  10.771  0.210E-01  0.105E-01  0.105E-01
  10.773  0.761E-03  0.381E-03  0.381E-03
  10.775  0.166E-03  0.832E-04  0.832E-04
  10.777  0.114E-03  0.568E-04  0.568E-04
  10.779  0.239E-02  0.120E-02  0.120E-02
  10.781  0.283E-01  0.141E-01  0.141E-01
  10.783  0.685E-01  0.342E-01  0.342E-01
  10.785  0.360E-01  0.180E-01  0.180E-01
  10.787  0.462E-02  0.231E-02  0.231E-02
  10.789  0.221E-01  0.111E-01  0.111E-01
  10.791  0.527E-01  0.263E-01  0.263E-01
  10.793  0.422E-01  0.211E-01  0.211E-01
  10.795  0.304E-01  0.152E-01  0.152E-01
  10.797  0.463E-02  0.231E-02  0.231E-02
  10.799  0.829E-03  0.414E-03  0.414E-03
  10.801  0.115E-02  0.573E-03  0.573E-03
  10.803  0.553E-03  0.276E-03  0.276E-03
  10.805  0.343E-02  0.171E-02  0.171E-02
  10.807  0.632E-02  0.316E-02  0.316E-02
  10.809  0.630E-02  0.315E-02  0.315E-02
  10.811  0.373E-02  0.187E-02  0.187E-02
  10.813  0.293E-02  0.146E-02  0.146E-02
  10.815  0.535E-02  0.267E-02  0.267E-02
  10.817  0.478E-02  0.239E-02  0.239E-02
  10.819  0.154E-02  0.772E-03  0.772E-03
  10.821  0.284E-03  0.142E-03  0.142E-03
  10.823  0.306E-02  0.153E-02  0.153E-02
  10.825  0.281E-01  0.141E-01  0.141E-01
  10.827  0.482E-01  0.241E-01  0.241E-01
  10.829  0.471E-01  0.235E-01  0.235E-01
  10.831  0.165E-01  0.827E-02  0.827E-02
  10.833  0.885E-03  0.442E-03  0.442E-03
  10.835  0.447E-04  0.223E-04  0.223E-04
  10.837  0.202E-03  0.101E-03  0.101E-03
  10.839  0.473E-02  0.236E-02  0.236E-02
  10.841  0.345E-01  0.172E-01  0.172E-01
  10.843  0.345E-01  0.172E-01  0.172E-01
  10.845  0.467E-02  0.233E-02  0.233E-02
  10.847  0.105E-03  0.527E-04  0.527E-04
  10.849  0.187E-04  0.933E-05  0.933E-05
  10.851  0.608E-04  0.304E-04  0.304E-04
  10.853  0.159E-03  0.795E-04  0.795E-04
  10.855  0.392E-03  0.196E-03  0.196E-03
  10.857  0.380E-02  0.190E-02  0.190E-02
  10.859  0.617E-02  0.309E-02  0.309E-02
  10.861  0.126E-01  0.629E-02  0.629E-02
  10.863  0.606E-01  0.303E-01  0.303E-01
  10.865  0.606E-01  0.303E-01  0.303E-01
  10.867  0.136E-01  0.678E-02  0.678E-02
  10.869  0.151E-02  0.753E-03  0.753E-03
  10.871  0.153E-03  0.766E-04  0.766E-04
  10.873  0.131E-03  0.656E-04  0.656E-04
  10.875  0.174E-03  0.872E-04  0.872E-04
  10.877  0.207E-03  0.104E-03  0.104E-03
  10.879  0.278E-02  0.139E-02  0.139E-02
  10.881  0.765E-02  0.383E-02  0.383E-02
  10.883  0.496E-02  0.248E-02  0.248E-02
  10.885  0.153E-02  0.765E-03  0.765E-03
  10.887  0.115E-03  0.576E-04  0.576E-04
  10.889  0.117E-04  0.585E-05  0.585E-05
  10.891  0.927E-04  0.463E-04  0.463E-04
  10.893  0.184E-03  0.921E-04  0.921E-04
  10.895  0.309E-02  0.155E-02  0.155E-02
  10.897  0.391E-01  0.195E-01  0.195E-01
  10.899  0.890E-01  0.445E-01  0.445E-01
  10.901  0.370E-01  0.185E-01  0.185E-01
  10.903  0.336E-02  0.168E-02  0.168E-02
  10.905  0.333E-02  0.167E-02  0.167E-02
  10.907  0.349E-02  0.174E-02  0.174E-02
  10.909  0.696E-02  0.348E-02  0.348E-02
  10.911  0.514E-02  0.257E-02  0.257E-02
  10.913  0.204E-01  0.102E-01  0.102E-01
  10.915  0.573E-01  0.286E-01  0.286E-01
  10.917  0.542E-01  0.271E-01  0.271E-01
  10.919  0.516E-01  0.258E-01  0.258E-01
  10.921  0.560E-01  0.280E-01  0.280E-01
  10.923  0.296E-01  0.148E-01  0.148E-01
  10.925  0.405E-02  0.202E-02  0.202E-02
  10.927  0.644E-03  0.322E-03  0.322E-03
  10.929  0.217E-03  0.109E-03  0.109E-03
  10.931  0.687E-02  0.343E-02  0.343E-02
  10.933  0.679E-01  0.339E-01  0.339E-01
  10.935  0.101E+00  0.507E-01  0.507E-01
  10.937  0.234E-01  0.117E-01  0.117E-01
  10.939  0.837E-03  0.419E-03  0.419E-03
  10.941  0.665E-03  0.333E-03  0.333E-03
  10.943  0.126E-01  0.630E-02  0.630E-02
  10.945  0.345E-01  0.173E-01  0.173E-01
  10.947  0.140E-01  0.702E-02  0.702E-02
  10.949  0.945E-03  0.473E-03  0.473E-03
  10.951  0.454E-03  0.227E-03  0.227E-03
  10.953  0.362E-03  0.181E-03  0.181E-03
  10.955  0.521E-03  0.261E-03  0.261E-03
  10.957  0.492E-02  0.246E-02  0.246E-02
  10.959  0.807E-02  0.403E-02  0.403E-02
  10.961  0.190E-02  0.948E-03  0.948E-03
  10.963  0.379E-03  0.189E-03  0.189E-03
  10.965  0.943E-02  0.471E-02  0.471E-02
  10.967  0.612E-01  0.306E-01  0.306E-01
  10.969  0.543E-01  0.272E-01  0.272E-01
  10.971  0.153E-01  0.767E-02  0.767E-02
  10.973  0.386E-01  0.193E-01  0.193E-01
  10.975  0.242E-01  0.121E-01  0.121E-01
  10.977  0.694E-02  0.347E-02  0.347E-02
  10.979  0.812E-02  0.406E-02  0.406E-02
  10.981  0.360E-02  0.180E-02  0.180E-02
  10.983  0.867E-03  0.433E-03  0.433E-03
  10.985  0.886E-04  0.443E-04  0.443E-04
  10.987  0.163E-03  0.816E-04  0.816E-04
  10.989  0.825E-03  0.413E-03  0.413E-03
  10.991  0.707E-03  0.354E-03  0.354E-03
  10.993  0.248E-02  0.124E-02  0.124E-02
  10.995  0.292E-01  0.146E-01  0.146E-01
  10.997  0.550E-01  0.275E-01  0.275E-01
  10.999  0.705E-01  0.353E-01  0.353E-01
  11.001  0.718E-01  0.359E-01  0.359E-01
  11.003  0.169E-01  0.844E-02  0.844E-02
  11.005  0.113E-01  0.567E-02  0.567E-02
  11.007  0.150E-01  0.750E-02  0.750E-02
  11.009  0.744E-02  0.372E-02  0.372E-02
  11.011  0.551E-03  0.275E-03  0.275E-03
  11.013  0.566E-05  0.283E-05  0.283E-05
  11.015  0.257E-06  0.129E-06  0.129E-06
  11.017  0.409E-05  0.205E-05  0.205E-05
  11.019  0.174E-04  0.871E-05  0.871E-05
  11.021  0.644E-04  0.322E-04  0.322E-04
  11.023  0.200E-02  0.100E-02  0.100E-02
  11.025  0.173E-01  0.863E-02  0.863E-02
  11.027  0.254E-01  0.127E-01  0.127E-01
  11.029  0.611E-01  0.306E-01  0.306E-01
  11.031  0.874E-01  0.437E-01  0.437E-01
  11.033  0.217E-01  0.108E-01  0.108E-01
  11.035  0.877E-02  0.438E-02  0.438E-02
  11.037  0.305E-02  0.153E-02  0.153E-02
  11.039  0.626E-03  0.313E-03  0.313E-03
  11.041  0.113E-03  0.567E-04  0.567E-04
  11.043  0.111E-02  0.553E-03  0.553E-03
  11.045  0.725E-02  0.362E-02  0.362E-02
  11.047  0.698E-02  0.349E-02  0.349E-02
  11.049  0.896E-02  0.448E-02  0.448E-02
  11.051  0.377E-01  0.188E-01  0.188E-01
  11.053  0.253E-01  0.127E-01  0.127E-01
  11.055  0.373E-01  0.186E-01  0.186E-01
  11.057  0.133E+00  0.664E-01  0.664E-01
  11.059  0.936E-01  0.468E-01  0.468E-01
  11.061  0.354E-01  0.177E-01  0.177E-01
  11.063  0.618E-01  0.309E-01  0.309E-01
  11.065  0.359E-01  0.180E-01  0.180E-01
  11.067  0.659E-02  0.329E-02  0.329E-02
  11.069  0.218E-02  0.109E-02  0.109E-02
  11.071  0.192E-02  0.958E-03  0.958E-03
  11.073  0.213E-02  0.107E-02  0.107E-02
  11.075  0.264E-01  0.132E-01  0.132E-01
  11.077  0.656E-01  0.328E-01  0.328E-01
  11.079  0.751E-01  0.375E-01  0.375E-01
  11.081  0.120E+00  0.600E-01  0.600E-01
  11.083  0.938E-01  0.469E-01  0.469E-01
  11.085  0.116E-01  0.581E-02  0.581E-02
  11.087  0.197E-02  0.986E-03  0.986E-03
  11.089  0.112E-01  0.560E-02  0.560E-02
  11.091  0.110E-01  0.550E-02  0.550E-02
  11.093  0.236E-02  0.118E-02  0.118E-02
  11.095  0.252E-03  0.126E-03  0.126E-03
  11.097  0.693E-03  0.346E-03  0.346E-03
  11.099  0.210E-01  0.105E-01  0.105E-01
  11.101  0.111E+00  0.556E-01  0.556E-01
  11.103  0.843E-01  0.422E-01  0.422E-01
  11.105  0.260E-01  0.130E-01  0.130E-01
  11.107  0.108E-01  0.542E-02  0.542E-02
  11.109  0.299E-02  0.149E-02  0.149E-02
  11.111  0.919E-02  0.460E-02  0.460E-02
  11.113  0.230E-01  0.115E-01  0.115E-01
  11.115  0.113E+00  0.565E-01  0.565E-01
  11.117  0.136E+00  0.681E-01  0.681E-01
  11.119  0.265E-01  0.132E-01  0.132E-01
  11.121  0.145E-02  0.723E-03  0.723E-03
  11.123  0.257E-01  0.129E-01  0.129E-01
  11.125  0.134E+00  0.672E-01  0.672E-01
  11.127  0.219E+00  0.109E+00  0.109E+00
  11.129  0.310E+00  0.155E+00  0.155E+00
  11.131  0.319E+00  0.159E+00  0.159E+00
  11.133  0.257E+00  0.128E+00  0.128E+00
  11.135  0.422E-01  0.211E-01  0.211E-01
  11.137  0.403E-02  0.202E-02  0.202E-02
  11.139  0.562E-01  0.281E-01  0.281E-01
  11.141  0.256E+00  0.128E+00  0.128E+00
  11.143  0.170E+00  0.849E-01  0.849E-01
  11.145  0.265E-01  0.132E-01  0.132E-01
  11.147  0.734E-02  0.367E-02  0.367E-02
  11.149  0.567E-02  0.283E-02  0.283E-02
  11.151  0.742E-02  0.371E-02  0.371E-02
  11.153  0.415E-01  0.208E-01  0.208E-01
  11.155  0.210E+00  0.105E+00  0.105E+00
  11.157  0.280E+00  0.140E+00  0.140E+00
  11.159  0.106E+00  0.529E-01  0.529E-01
  11.161  0.848E-02  0.424E-02  0.424E-02
  11.163  0.254E-02  0.127E-02  0.127E-02
  11.165  0.123E-02  0.617E-03  0.617E-03
  11.167  0.513E-03  0.256E-03  0.256E-03
  11.169  0.184E-01  0.918E-02  0.918E-02
  11.171  0.106E+00  0.532E-01  0.532E-01
  11.173  0.835E-01  0.418E-01  0.418E-01
  11.175  0.133E-01  0.663E-02  0.663E-02
  11.177  0.669E-01  0.335E-01  0.335E-01
  11.179  0.167E+00  0.837E-01  0.837E-01
  11.181  0.113E+00  0.565E-01  0.565E-01
  11.183  0.540E-01  0.270E-01  0.270E-01
  11.185  0.113E+00  0.567E-01  0.567E-01
  11.187  0.869E-01  0.435E-01  0.435E-01
  11.189  0.115E+00  0.577E-01  0.577E-01
  11.191  0.842E-01  0.421E-01  0.421E-01
  11.193  0.118E-01  0.589E-02  0.589E-02
  11.195  0.578E-02  0.289E-02  0.289E-02
  11.197  0.101E-01  0.507E-02  0.507E-02
  11.199  0.279E-02  0.140E-02  0.140E-02
  11.201  0.130E-02  0.650E-03  0.650E-03
  11.203  0.306E-01  0.153E-01  0.153E-01
  11.205  0.118E+00  0.592E-01  0.592E-01
  11.207  0.646E-01  0.323E-01  0.323E-01
  11.209  0.348E-01  0.174E-01  0.174E-01
  11.211  0.474E-01  0.237E-01  0.237E-01
  11.213  0.203E-01  0.102E-01  0.102E-01
  11.215  0.388E-01  0.194E-01  0.194E-01
  11.217  0.192E-01  0.958E-02  0.958E-02
  11.219  0.329E-02  0.164E-02  0.164E-02
  11.221  0.257E-01  0.129E-01  0.129E-01
  11.223  0.448E-01  0.224E-01  0.224E-01
  11.225  0.105E-01  0.527E-02  0.527E-02
  11.227  0.336E-03  0.168E-03  0.168E-03
  11.229  0.150E-05  0.749E-06  0.749E-06
  11.231  0.399E-04  0.199E-04  0.199E-04
  11.233  0.417E-02  0.209E-02  0.209E-02
  11.235  0.610E-01  0.305E-01  0.305E-01
  11.237  0.143E+00  0.713E-01  0.713E-01
  11.239  0.803E-01  0.401E-01  0.401E-01
  11.241  0.126E-01  0.632E-02  0.632E-02
  11.243  0.329E-02  0.165E-02  0.165E-02
  11.245  0.911E-02  0.456E-02  0.456E-02
  11.247  0.100E-01  0.500E-02  0.500E-02
  11.249  0.103E-01  0.517E-02  0.517E-02
  11.251  0.231E-02  0.116E-02  0.116E-02
  11.253  0.852E-03  0.426E-03  0.426E-03
  11.255  0.261E-02  0.131E-02  0.131E-02
  11.257  0.134E-02  0.670E-03  0.670E-03
  11.259  0.189E-03  0.943E-04  0.943E-04
  11.261  0.182E-03  0.911E-04  0.911E-04
  11.263  0.465E-04  0.233E-04  0.233E-04
  11.265  0.236E-05  0.118E-05  0.118E-05
  11.267  0.268E-03  0.134E-03  0.134E-03
  11.269  0.131E-01  0.657E-02  0.657E-02
  11.271  0.872E-01  0.436E-01  0.436E-01
  11.273  0.785E-01  0.393E-01  0.393E-01
  11.275  0.963E-02  0.481E-02  0.481E-02
  11.277  0.164E-03  0.822E-04  0.822E-04
  11.279  0.603E-05  0.302E-05  0.302E-05
  11.281  0.273E-03  0.136E-03  0.136E-03
  11.283  0.180E-02  0.898E-03  0.898E-03
  11.285  0.160E-02  0.799E-03  0.799E-03
  11.287  0.206E-03  0.103E-03  0.103E-03
  11.289  0.366E-03  0.183E-03  0.183E-03
  11.291  0.221E-02  0.111E-02  0.111E-02
  11.293  0.214E-02  0.107E-02  0.107E-02
  11.295  0.572E-03  0.286E-03  0.286E-03
  11.297  0.729E-02  0.364E-02  0.364E-02
  11.299  0.390E-01  0.195E-01  0.195E-01
  11.301  0.360E-01  0.180E-01  0.180E-01
  11.303  0.609E-02  0.304E-02  0.304E-02
  11.305  0.128E-02  0.638E-03  0.638E-03
  11.307  0.617E-02  0.308E-02  0.308E-02
  11.309  0.618E-01  0.309E-01  0.309E-01
  11.311  0.885E-01  0.442E-01  0.442E-01
  11.313  0.525E-01  0.262E-01  0.262E-01
  11.315  0.945E-01  0.473E-01  0.473E-01
  11.317  0.338E-01  0.169E-01  0.169E-01
  11.319  0.166E-02  0.832E-03  0.832E-03
  11.321  0.112E-04  0.562E-05  0.562E-05
  11.323  0.104E-07  0.520E-08  0.520E-08
  11.325  0.784E-11  0.392E-11  0.392E-11
  11.327  0.329E-08  0.164E-08  0.164E-08
  11.329  0.237E-06  0.119E-06  0.119E-06
  11.331  0.252E-05  0.126E-05  0.126E-05
  11.333  0.429E-05  0.215E-05  0.215E-05
  11.335  0.174E-04  0.869E-05  0.869E-05
  11.337  0.177E-03  0.884E-04  0.884E-04
  11.339  0.297E-03  0.149E-03  0.149E-03
  11.341  0.185E-03  0.924E-04  0.924E-04
  11.343  0.224E-02  0.112E-02  0.112E-02
  11.345  0.119E-01  0.594E-02  0.594E-02
  11.347  0.201E-01  0.100E-01  0.100E-01
  11.349  0.510E-01  0.255E-01  0.255E-01
  11.351  0.878E-01  0.439E-01  0.439E-01
  11.353  0.292E-01  0.146E-01  0.146E-01
  11.355  0.264E-01  0.132E-01  0.132E-01
  11.357  0.484E-01  0.242E-01  0.242E-01
  11.359  0.128E-01  0.639E-02  0.639E-02
  11.361  0.272E-02  0.136E-02  0.136E-02
  11.363  0.268E-01  0.134E-01  0.134E-01
  11.365  0.454E-01  0.227E-01  0.227E-01
  11.367  0.185E-01  0.923E-02  0.923E-02
  11.369  0.539E-02  0.269E-02  0.269E-02
  11.371  0.415E-03  0.207E-03  0.207E-03
  11.373  0.624E-05  0.312E-05  0.312E-05
  11.375  0.447E-07  0.223E-07  0.223E-07
  11.377  0.309E-06  0.155E-06  0.155E-06
  11.379  0.140E-04  0.698E-05  0.698E-05
  11.381  0.560E-03  0.280E-03  0.280E-03
  11.383  0.751E-02  0.375E-02  0.375E-02
  11.385  0.318E-01  0.159E-01  0.159E-01
  11.387  0.226E-01  0.113E-01  0.113E-01
  11.389  0.234E-02  0.117E-02  0.117E-02
  11.391  0.584E-04  0.292E-04  0.292E-04
  11.393  0.130E-02  0.652E-03  0.652E-03
  11.395  0.270E-01  0.135E-01  0.135E-01
  11.397  0.815E-01  0.408E-01  0.408E-01
  11.399  0.361E-01  0.180E-01  0.180E-01
  11.401  0.446E-02  0.223E-02  0.223E-02
  11.403  0.321E-02  0.160E-02  0.160E-02
  11.405  0.310E-01  0.155E-01  0.155E-01
  11.407  0.517E-01  0.258E-01  0.258E-01
  11.409  0.117E-01  0.587E-02  0.587E-02
  11.411  0.132E-02  0.659E-03  0.659E-03
  11.413  0.175E-02  0.874E-03  0.874E-03
  11.415  0.466E-03  0.233E-03  0.233E-03
  11.417  0.135E-03  0.676E-04  0.676E-04
  11.419  0.539E-04  0.270E-04  0.270E-04
  11.421  0.501E-05  0.251E-05  0.251E-05
  11.423  0.615E-06  0.308E-06  0.308E-06
  11.425  0.240E-04  0.120E-04  0.120E-04
  11.427  0.621E-03  0.311E-03  0.311E-03
  11.429  0.342E-02  0.171E-02  0.171E-02
  11.431  0.100E-01  0.501E-02  0.501E-02
  11.433  0.402E-01  0.201E-01  0.201E-01
  11.435  0.319E-01  0.159E-01  0.159E-01
  11.437  0.691E-02  0.346E-02  0.346E-02
  11.439  0.378E-01  0.189E-01  0.189E-01
  11.441  0.606E-01  0.303E-01  0.303E-01
  11.443  0.224E-01  0.112E-01  0.112E-01
  11.445  0.405E-02  0.203E-02  0.203E-02
  11.447  0.181E-03  0.903E-04  0.903E-04
  11.449  0.407E-05  0.203E-05  0.203E-05
  11.451  0.110E-04  0.550E-05  0.550E-05
  11.453  0.190E-03  0.952E-04  0.952E-04
  11.455  0.455E-03  0.227E-03  0.227E-03
  11.457  0.149E-03  0.744E-04  0.744E-04
  11.459  0.134E-04  0.670E-05  0.670E-05
  11.461  0.717E-04  0.358E-04  0.358E-04
  11.463  0.259E-03  0.130E-03  0.130E-03
  11.465  0.590E-03  0.295E-03  0.295E-03
  11.467  0.965E-02  0.482E-02  0.482E-02
  11.469  0.275E-01  0.137E-01  0.137E-01
  11.471  0.107E-01  0.533E-02  0.533E-02
  11.473  0.569E-03  0.284E-03  0.284E-03
  11.475  0.105E-02  0.526E-03  0.526E-03
  11.477  0.229E-01  0.114E-01  0.114E-01
  11.479  0.675E-01  0.338E-01  0.338E-01
  11.481  0.276E-01  0.138E-01  0.138E-01
  11.483  0.159E-01  0.796E-02  0.796E-02
  11.485  0.538E-01  0.269E-01  0.269E-01
  11.487  0.331E-01  0.165E-01  0.165E-01
  11.489  0.430E-02  0.215E-02  0.215E-02
  11.491  0.166E-03  0.831E-04  0.831E-04
  11.493  0.293E-04  0.147E-04  0.147E-04
  11.495  0.770E-04  0.385E-04  0.385E-04
  11.497  0.375E-02  0.188E-02  0.188E-02
  11.499  0.339E-01  0.169E-01  0.169E-01
  11.501  0.454E-01  0.227E-01  0.227E-01
  11.503  0.405E-01  0.202E-01  0.202E-01
  11.505  0.371E-01  0.186E-01  0.186E-01
  11.507  0.609E-02  0.305E-02  0.305E-02
  11.509  0.374E-02  0.187E-02  0.187E-02
  11.511  0.302E-02  0.151E-02  0.151E-02
  11.513  0.340E-03  0.170E-03  0.170E-03
  11.515  0.170E-04  0.851E-05  0.851E-05
  11.517  0.229E-03  0.114E-03  0.114E-03
  11.519  0.636E-03  0.318E-03  0.318E-03
  11.521  0.463E-03  0.231E-03  0.231E-03
  11.523  0.902E-03  0.451E-03  0.451E-03
  11.525  0.501E-02  0.251E-02  0.251E-02
  11.527  0.817E-02  0.408E-02  0.408E-02
  11.529  0.261E-01  0.130E-01  0.130E-01
  11.531  0.300E-01  0.150E-01  0.150E-01
  11.533  0.486E-02  0.243E-02  0.243E-02
  11.535  0.194E-02  0.970E-03  0.970E-03
  11.537  0.857E-02  0.429E-02  0.429E-02
  11.539  0.599E-02  0.300E-02  0.300E-02
  11.541  0.143E-01  0.714E-02  0.714E-02
  11.543  0.450E-01  0.225E-01  0.225E-01
  11.545  0.289E-01  0.144E-01  0.144E-01
  11.547  0.627E-01  0.314E-01  0.314E-01
  11.549  0.557E-01  0.279E-01  0.279E-01
  11.551  0.706E-02  0.353E-02  0.353E-02
  11.553  0.817E-03  0.408E-03  0.408E-03
  11.555  0.326E-03  0.163E-03  0.163E-03
  11.557  0.317E-04  0.159E-04  0.159E-04
  11.559  0.276E-05  0.138E-05  0.138E-05
  11.561  0.123E-03  0.614E-04  0.614E-04
  11.563  0.182E-02  0.910E-03  0.910E-03
  11.565  0.369E-02  0.185E-02  0.185E-02
  11.567  0.103E-02  0.514E-03  0.514E-03
  11.569  0.821E-04  0.410E-04  0.410E-04
  11.571  0.199E-02  0.996E-03  0.996E-03
  11.573  0.169E-01  0.843E-02  0.843E-02
  11.575  0.196E-01  0.981E-02  0.981E-02
  11.577  0.336E-02  0.168E-02  0.168E-02
  11.579  0.263E-02  0.131E-02  0.131E-02
  11.581  0.798E-02  0.399E-02  0.399E-02
  11.583  0.347E-01  0.173E-01  0.173E-01
  11.585  0.997E-01  0.498E-01  0.498E-01
  11.587  0.632E-01  0.316E-01  0.316E-01
  11.589  0.758E-02  0.379E-02  0.379E-02
  11.591  0.832E-03  0.416E-03  0.416E-03
  11.593  0.109E-01  0.545E-02  0.545E-02
  11.595  0.298E-01  0.149E-01  0.149E-01
  11.597  0.112E-01  0.561E-02  0.561E-02
  11.599  0.790E-03  0.395E-03  0.395E-03
  11.601  0.186E-03  0.929E-04  0.929E-04
  11.603  0.746E-03  0.373E-03  0.373E-03
  11.605  0.236E-01  0.118E-01  0.118E-01
  11.607  0.125E+00  0.626E-01  0.626E-01
  11.609  0.129E+00  0.647E-01  0.647E-01
  11.611  0.370E-01  0.185E-01  0.185E-01
  11.613  0.281E-01  0.141E-01  0.141E-01
  11.615  0.196E-01  0.981E-02  0.981E-02
  11.617  0.117E-01  0.584E-02  0.584E-02
  11.619  0.189E-02  0.944E-03  0.944E-03
  11.621  0.502E-04  0.251E-04  0.251E-04
  11.623  0.908E-04  0.454E-04  0.454E-04
  11.625  0.265E-03  0.133E-03  0.133E-03
  11.627  0.433E-03  0.217E-03  0.217E-03
