# E (eV)   ldos(E)   pdos(E)_1   pdos(E)_2   pdos(E)_3   pdos(E)_4   
   7.605  0.199E-03  0.497E-04  0.497E-04  0.497E-04  0.497E-04
   7.607  0.124E-01  0.310E-02  0.310E-02  0.310E-02  0.310E-02
   7.609  0.108E+00  0.269E-01  0.269E-01  0.269E-01  0.269E-01
   7.611  0.155E+00  0.388E-01  0.388E-01  0.388E-01  0.388E-01
   7.613  0.817E-01  0.204E-01  0.204E-01  0.204E-01  0.204E-01
   7.615  0.264E-01  0.660E-02  0.660E-02  0.660E-02  0.660E-02
   7.617  0.252E-02  0.631E-03  0.631E-03  0.631E-03  0.631E-03
   7.619  0.774E-02  0.193E-02  0.193E-02  0.193E-02  0.193E-02
   7.621  0.267E-01  0.669E-02  0.669E-02  0.669E-02  0.669E-02
   7.623  0.126E-01  0.314E-02  0.314E-02  0.314E-02  0.314E-02
   7.625  0.798E-03  0.200E-03  0.200E-03  0.200E-03  0.200E-03
   7.627  0.687E-05  0.172E-05  0.172E-05  0.172E-05  0.172E-05
   7.629  0.799E-08  0.200E-08  0.200E-08  0.200E-08  0.200E-08
   7.631  0.126E-11  0.315E-12  0.315E-12  0.315E-12  0.315E-12
   7.633  0.271E-16  0.677E-17  0.677E-17  0.677E-17  0.677E-17
   7.635  0.263E-13  0.656E-14  0.656E-14  0.656E-14  0.656E-14
   7.637  0.376E-09  0.939E-10  0.939E-10  0.939E-10  0.939E-10
   7.639  0.732E-06  0.183E-06  0.183E-06  0.183E-06  0.183E-06
   7.641  0.197E-03  0.493E-04  0.493E-04  0.493E-04  0.493E-04
   7.643  0.758E-02  0.189E-02  0.189E-02  0.189E-02  0.189E-02
   7.645  0.443E-01  0.111E-01  0.111E-01  0.111E-01  0.111E-01
   7.647  0.431E-01  0.108E-01  0.108E-01  0.108E-01  0.108E-01
   7.649  0.759E-02  0.190E-02  0.190E-02  0.190E-02  0.190E-02
   7.651  0.735E-02  0.184E-02  0.184E-02  0.184E-02  0.184E-02
   7.653  0.217E-01  0.543E-02  0.543E-02  0.543E-02  0.543E-02
   7.655  0.930E-02  0.233E-02  0.233E-02  0.233E-02  0.233E-02
   7.657  0.201E-01  0.503E-02  0.503E-02  0.503E-02  0.503E-02
   7.659  0.133E+00  0.331E-01  0.331E-01  0.331E-01  0.331E-01
   7.661  0.121E+00  0.303E-01  0.303E-01  0.303E-01  0.303E-01
   7.663  0.155E-01  0.388E-02  0.388E-02  0.388E-02  0.388E-02
   7.665  0.220E-01  0.551E-02  0.551E-02  0.551E-02  0.551E-02
   7.667  0.119E+00  0.297E-01  0.297E-01  0.297E-01  0.297E-01
   7.669  0.877E-01  0.219E-01  0.219E-01  0.219E-01  0.219E-01
   7.671  0.876E-02  0.219E-02  0.219E-02  0.219E-02  0.219E-02
   7.673  0.212E-03  0.530E-04  0.530E-04  0.530E-04  0.530E-04
   7.675  0.475E-02  0.119E-02  0.119E-02  0.119E-02  0.119E-02
   7.677  0.336E-01  0.841E-02  0.841E-02  0.841E-02  0.841E-02
   7.679  0.334E-01  0.834E-02  0.834E-02  0.834E-02  0.834E-02
   7.681  0.675E-02  0.169E-02  0.169E-02  0.169E-02  0.169E-02
   7.683  0.149E-01  0.372E-02  0.372E-02  0.372E-02  0.372E-02
   7.685  0.529E-01  0.132E-01  0.132E-01  0.132E-01  0.132E-01
   7.687  0.235E+00  0.589E-01  0.589E-01  0.589E-01  0.589E-01
   7.689  0.182E+00  0.456E-01  0.456E-01  0.456E-01  0.456E-01
   7.691  0.192E-01  0.481E-02  0.481E-02  0.481E-02  0.481E-02
   7.693  0.275E-03  0.687E-04  0.687E-04  0.687E-04  0.687E-04
   7.695  0.531E-06  0.133E-06  0.133E-06  0.133E-06  0.133E-06
   7.697  0.139E-09  0.347E-10  0.347E-10  0.347E-10  0.347E-10
   7.699  0.895E-11  0.224E-11  0.224E-11  0.224E-11  0.224E-11
   7.701  0.383E-07  0.958E-08  0.958E-08  0.958E-08  0.958E-08
   7.703  0.223E-04  0.558E-05  0.558E-05  0.558E-05  0.558E-05
   7.705  0.177E-02  0.442E-03  0.442E-03  0.442E-03  0.442E-03
   7.707  0.191E-01  0.477E-02  0.477E-02  0.477E-02  0.477E-02
   7.709  0.281E-01  0.703E-02  0.703E-02  0.703E-02  0.703E-02
   7.711  0.947E-02  0.237E-02  0.237E-02  0.237E-02  0.237E-02
   7.713  0.124E-01  0.311E-02  0.311E-02  0.311E-02  0.311E-02
   7.715  0.522E-02  0.131E-02  0.131E-02  0.131E-02  0.131E-02
   7.717  0.301E-03  0.752E-04  0.752E-04  0.752E-04  0.752E-04
   7.719  0.234E-05  0.586E-06  0.586E-06  0.586E-06  0.586E-06
   7.721  0.313E-08  0.782E-09  0.782E-09  0.782E-09  0.782E-09
   7.723  0.168E-05  0.420E-06  0.420E-06  0.420E-06  0.420E-06
   7.725  0.603E-03  0.151E-03  0.151E-03  0.151E-03  0.151E-03
   7.727  0.303E-01  0.758E-02  0.758E-02  0.758E-02  0.758E-02
   7.729  0.214E+00  0.536E-01  0.536E-01  0.536E-01  0.536E-01
   7.731  0.214E+00  0.534E-01  0.534E-01  0.534E-01  0.534E-01
   7.733  0.315E-01  0.787E-02  0.787E-02  0.787E-02  0.787E-02
   7.735  0.904E-01  0.226E-01  0.226E-01  0.226E-01  0.226E-01
   7.737  0.123E+01  0.307E+00  0.307E+00  0.307E+00  0.307E+00
   7.739  0.367E+01  0.917E+00  0.917E+00  0.917E+00  0.917E+00
   7.741  0.554E+01  0.138E+01  0.138E+01  0.138E+01  0.138E+01
   7.743  0.740E+01  0.185E+01  0.185E+01  0.185E+01  0.185E+01
   7.745  0.632E+01  0.158E+01  0.158E+01  0.158E+01  0.158E+01
   7.747  0.288E+01  0.720E+00  0.720E+00  0.720E+00  0.720E+00
   7.749  0.159E+01  0.397E+00  0.397E+00  0.397E+00  0.397E+00
   7.751  0.158E+01  0.396E+00  0.396E+00  0.396E+00  0.396E+00
   7.753  0.796E+00  0.199E+00  0.199E+00  0.199E+00  0.199E+00
   7.755  0.716E+00  0.179E+00  0.179E+00  0.179E+00  0.179E+00
   7.757  0.829E+00  0.207E+00  0.207E+00  0.207E+00  0.207E+00
   7.759  0.141E+01  0.353E+00  0.353E+00  0.353E+00  0.353E+00
   7.761  0.133E+01  0.333E+00  0.333E+00  0.333E+00  0.333E+00
   7.763  0.210E+00  0.526E-01  0.526E-01  0.526E-01  0.526E-01
   7.765  0.285E+00  0.713E-01  0.713E-01  0.713E-01  0.713E-01
   7.767  0.820E+00  0.205E+00  0.205E+00  0.205E+00  0.205E+00
   7.769  0.426E+00  0.106E+00  0.106E+00  0.106E+00  0.106E+00
   7.771  0.820E+00  0.205E+00  0.205E+00  0.205E+00  0.205E+00
   7.773  0.136E+01  0.341E+00  0.341E+00  0.341E+00  0.341E+00
   7.775  0.657E+00  0.164E+00  0.164E+00  0.164E+00  0.164E+00
   7.777  0.733E-01  0.183E-01  0.183E-01  0.183E-01  0.183E-01
   7.779  0.208E+00  0.520E-01  0.520E-01  0.520E-01  0.520E-01
   7.781  0.782E+00  0.196E+00  0.196E+00  0.196E+00  0.196E+00
   7.783  0.413E+00  0.103E+00  0.103E+00  0.103E+00  0.103E+00
   7.785  0.316E+00  0.790E-01  0.790E-01  0.790E-01  0.790E-01
   7.787  0.899E+00  0.225E+00  0.225E+00  0.225E+00  0.225E+00
   7.789  0.416E+00  0.104E+00  0.104E+00  0.104E+00  0.104E+00
   7.791  0.436E+00  0.109E+00  0.109E+00  0.109E+00  0.109E+00
   7.793  0.754E+00  0.189E+00  0.189E+00  0.189E+00  0.189E+00
   7.795  0.434E+00  0.108E+00  0.108E+00  0.108E+00  0.108E+00
   7.797  0.683E+00  0.171E+00  0.171E+00  0.171E+00  0.171E+00
   7.799  0.839E+00  0.210E+00  0.210E+00  0.210E+00  0.210E+00
   7.801  0.239E+00  0.598E-01  0.598E-01  0.598E-01  0.598E-01
   7.803  0.255E+00  0.637E-01  0.637E-01  0.637E-01  0.637E-01
   7.805  0.965E+00  0.241E+00  0.241E+00  0.241E+00  0.241E+00
   7.807  0.579E+00  0.145E+00  0.145E+00  0.145E+00  0.145E+00
   7.809  0.504E-01  0.126E-01  0.126E-01  0.126E-01  0.126E-01
   7.811  0.211E-02  0.527E-03  0.527E-03  0.527E-03  0.527E-03
   7.813  0.783E-01  0.196E-01  0.196E-01  0.196E-01  0.196E-01
   7.815  0.580E+00  0.145E+00  0.145E+00  0.145E+00  0.145E+00
   7.817  0.749E+00  0.187E+00  0.187E+00  0.187E+00  0.187E+00
   7.819  0.821E+00  0.205E+00  0.205E+00  0.205E+00  0.205E+00
   7.821  0.421E+00  0.105E+00  0.105E+00  0.105E+00  0.105E+00
   7.823  0.445E-01  0.111E-01  0.111E-01  0.111E-01  0.111E-01
   7.825  0.263E+00  0.659E-01  0.659E-01  0.659E-01  0.659E-01
   7.827  0.892E+00  0.223E+00  0.223E+00  0.223E+00  0.223E+00
   7.829  0.411E+00  0.103E+00  0.103E+00  0.103E+00  0.103E+00
   7.831  0.256E-01  0.640E-02  0.640E-02  0.640E-02  0.640E-02
   7.833  0.275E-03  0.687E-04  0.687E-04  0.687E-04  0.687E-04
   7.835  0.520E-03  0.130E-03  0.130E-03  0.130E-03  0.130E-03
   7.837  0.707E-03  0.177E-03  0.177E-03  0.177E-03  0.177E-03
   7.839  0.987E-02  0.247E-02  0.247E-02  0.247E-02  0.247E-02
   7.841  0.300E+00  0.749E-01  0.749E-01  0.749E-01  0.749E-01
   7.843  0.134E+01  0.334E+00  0.334E+00  0.334E+00  0.334E+00
   7.845  0.877E+00  0.219E+00  0.219E+00  0.219E+00  0.219E+00
   7.847  0.861E-01  0.215E-01  0.215E-01  0.215E-01  0.215E-01
   7.849  0.932E-01  0.233E-01  0.233E-01  0.233E-01  0.233E-01
   7.851  0.698E+00  0.174E+00  0.174E+00  0.174E+00  0.174E+00
   7.853  0.716E+00  0.179E+00  0.179E+00  0.179E+00  0.179E+00
   7.855  0.995E-01  0.249E-01  0.249E-01  0.249E-01  0.249E-01
   7.857  0.187E-02  0.468E-03  0.468E-03  0.468E-03  0.468E-03
   7.859  0.551E-05  0.138E-05  0.138E-05  0.138E-05  0.138E-05
   7.861  0.266E-03  0.666E-04  0.666E-04  0.666E-04  0.666E-04
   7.863  0.128E-01  0.319E-02  0.319E-02  0.319E-02  0.319E-02
   7.865  0.833E-01  0.208E-01  0.208E-01  0.208E-01  0.208E-01
   7.867  0.122E+00  0.305E-01  0.305E-01  0.305E-01  0.305E-01
   7.869  0.504E+00  0.126E+00  0.126E+00  0.126E+00  0.126E+00
   7.871  0.673E+00  0.168E+00  0.168E+00  0.168E+00  0.168E+00
   7.873  0.223E+00  0.557E-01  0.557E-01  0.557E-01  0.557E-01
   7.875  0.590E+00  0.147E+00  0.147E+00  0.147E+00  0.147E+00
   7.877  0.573E+00  0.143E+00  0.143E+00  0.143E+00  0.143E+00
   7.879  0.800E+00  0.200E+00  0.200E+00  0.200E+00  0.200E+00
   7.881  0.739E+00  0.185E+00  0.185E+00  0.185E+00  0.185E+00
   7.883  0.205E+00  0.512E-01  0.512E-01  0.512E-01  0.512E-01
   7.885  0.331E-01  0.828E-02  0.828E-02  0.828E-02  0.828E-02
   7.887  0.112E-02  0.280E-03  0.280E-03  0.280E-03  0.280E-03
   7.889  0.531E-05  0.133E-05  0.133E-05  0.133E-05  0.133E-05
   7.891  0.358E-08  0.895E-09  0.895E-09  0.895E-09  0.895E-09
   7.893  0.735E-06  0.184E-06  0.184E-06  0.184E-06  0.184E-06
   7.895  0.460E-03  0.115E-03  0.115E-03  0.115E-03  0.115E-03
   7.897  0.389E-01  0.973E-02  0.973E-02  0.973E-02  0.973E-02
   7.899  0.446E+00  0.111E+00  0.111E+00  0.111E+00  0.111E+00
   7.901  0.692E+00  0.173E+00  0.173E+00  0.173E+00  0.173E+00
   7.903  0.154E+00  0.384E-01  0.384E-01  0.384E-01  0.384E-01
   7.905  0.121E+00  0.304E-01  0.304E-01  0.304E-01  0.304E-01
   7.907  0.250E+00  0.626E-01  0.626E-01  0.626E-01  0.626E-01
   7.909  0.681E+00  0.170E+00  0.170E+00  0.170E+00  0.170E+00
   7.911  0.155E+01  0.388E+00  0.388E+00  0.388E+00  0.388E+00
   7.913  0.540E+00  0.135E+00  0.135E+00  0.135E+00  0.135E+00
   7.915  0.267E-01  0.667E-02  0.667E-02  0.667E-02  0.667E-02
   7.917  0.186E-03  0.465E-04  0.465E-04  0.465E-04  0.465E-04
   7.919  0.182E-06  0.454E-07  0.454E-07  0.454E-07  0.454E-07
   7.921  0.248E-10  0.620E-11  0.620E-11  0.620E-11  0.620E-11
   7.923  0.382E-12  0.954E-13  0.954E-13  0.954E-13  0.954E-13
   7.925  0.585E-08  0.146E-08  0.146E-08  0.146E-08  0.146E-08
   7.927  0.121E-04  0.304E-05  0.304E-05  0.304E-05  0.304E-05
   7.929  0.341E-02  0.854E-03  0.854E-03  0.854E-03  0.854E-03
   7.931  0.130E+00  0.325E-01  0.325E-01  0.325E-01  0.325E-01
   7.933  0.668E+00  0.167E+00  0.167E+00  0.167E+00  0.167E+00
   7.935  0.468E+00  0.117E+00  0.117E+00  0.117E+00  0.117E+00
   7.937  0.783E-01  0.196E-01  0.196E-01  0.196E-01  0.196E-01
   7.939  0.873E-01  0.218E-01  0.218E-01  0.218E-01  0.218E-01
   7.941  0.762E-01  0.191E-01  0.191E-01  0.191E-01  0.191E-01
   7.943  0.548E+00  0.137E+00  0.137E+00  0.137E+00  0.137E+00
   7.945  0.864E+00  0.216E+00  0.216E+00  0.216E+00  0.216E+00
   7.947  0.314E+00  0.786E-01  0.786E-01  0.786E-01  0.786E-01
   7.949  0.591E+00  0.148E+00  0.148E+00  0.148E+00  0.148E+00
   7.951  0.355E+00  0.887E-01  0.887E-01  0.887E-01  0.887E-01
   7.953  0.290E-01  0.726E-02  0.726E-02  0.726E-02  0.726E-02
   7.955  0.322E-03  0.805E-04  0.805E-04  0.805E-04  0.805E-04
   7.957  0.170E-05  0.425E-06  0.425E-06  0.425E-06  0.425E-06
   7.959  0.428E-03  0.107E-03  0.107E-03  0.107E-03  0.107E-03
   7.961  0.254E-01  0.635E-02  0.635E-02  0.635E-02  0.635E-02
   7.963  0.325E+00  0.813E-01  0.813E-01  0.813E-01  0.813E-01
   7.965  0.106E+01  0.265E+00  0.265E+00  0.265E+00  0.265E+00
   7.967  0.127E+01  0.317E+00  0.317E+00  0.317E+00  0.317E+00
   7.969  0.151E+01  0.377E+00  0.377E+00  0.377E+00  0.377E+00
   7.971  0.955E+00  0.239E+00  0.239E+00  0.239E+00  0.239E+00
   7.973  0.366E+00  0.915E-01  0.915E-01  0.915E-01  0.915E-01
   7.975  0.764E+00  0.191E+00  0.191E+00  0.191E+00  0.191E+00
   7.977  0.402E+00  0.100E+00  0.100E+00  0.100E+00  0.100E+00
   7.979  0.945E+00  0.236E+00  0.236E+00  0.236E+00  0.236E+00
   7.981  0.139E+01  0.347E+00  0.347E+00  0.347E+00  0.347E+00
   7.983  0.358E+00  0.895E-01  0.895E-01  0.895E-01  0.895E-01
   7.985  0.213E-01  0.532E-02  0.532E-02  0.532E-02  0.532E-02
   7.987  0.237E+00  0.592E-01  0.592E-01  0.592E-01  0.592E-01
   7.989  0.120E+01  0.300E+00  0.300E+00  0.300E+00  0.300E+00
   7.991  0.917E+00  0.229E+00  0.229E+00  0.229E+00  0.229E+00
   7.993  0.223E+00  0.559E-01  0.559E-01  0.559E-01  0.559E-01
   7.995  0.574E+00  0.143E+00  0.143E+00  0.143E+00  0.143E+00
   7.997  0.374E+00  0.935E-01  0.935E-01  0.935E-01  0.935E-01
   7.999  0.331E-01  0.828E-02  0.828E-02  0.828E-02  0.828E-02
   8.001  0.397E-03  0.992E-04  0.992E-04  0.992E-04  0.992E-04
   8.003  0.744E-04  0.186E-04  0.186E-04  0.186E-04  0.186E-04
   8.005  0.130E-01  0.325E-02  0.325E-02  0.325E-02  0.325E-02
   8.007  0.339E+00  0.847E-01  0.847E-01  0.847E-01  0.847E-01
   8.009  0.138E+01  0.346E+00  0.346E+00  0.346E+00  0.346E+00
   8.011  0.916E+00  0.229E+00  0.229E+00  0.229E+00  0.229E+00
   8.013  0.173E+00  0.432E-01  0.432E-01  0.432E-01  0.432E-01
   8.015  0.501E+00  0.125E+00  0.125E+00  0.125E+00  0.125E+00
   8.017  0.860E+00  0.215E+00  0.215E+00  0.215E+00  0.215E+00
   8.019  0.974E+00  0.244E+00  0.244E+00  0.244E+00  0.244E+00
   8.021  0.706E+00  0.176E+00  0.176E+00  0.176E+00  0.176E+00
   8.023  0.851E-01  0.213E-01  0.213E-01  0.213E-01  0.213E-01
   8.025  0.141E-02  0.351E-03  0.351E-03  0.351E-03  0.351E-03
   8.027  0.535E-03  0.134E-03  0.134E-03  0.134E-03  0.134E-03
   8.029  0.387E-01  0.968E-02  0.968E-02  0.968E-02  0.968E-02
   8.031  0.382E+00  0.955E-01  0.955E-01  0.955E-01  0.955E-01
   8.033  0.565E+00  0.141E+00  0.141E+00  0.141E+00  0.141E+00
   8.035  0.653E+00  0.163E+00  0.163E+00  0.163E+00  0.163E+00
   8.037  0.752E+00  0.188E+00  0.188E+00  0.188E+00  0.188E+00
   8.039  0.246E+00  0.614E-01  0.614E-01  0.614E-01  0.614E-01
   8.041  0.536E+00  0.134E+00  0.134E+00  0.134E+00  0.134E+00
   8.043  0.346E+00  0.866E-01  0.866E-01  0.866E-01  0.866E-01
   8.045  0.570E-01  0.143E-01  0.143E-01  0.143E-01  0.143E-01
   8.047  0.101E+00  0.252E-01  0.252E-01  0.252E-01  0.252E-01
   8.049  0.240E+00  0.599E-01  0.599E-01  0.599E-01  0.599E-01
   8.051  0.712E+00  0.178E+00  0.178E+00  0.178E+00  0.178E+00
   8.053  0.348E+00  0.871E-01  0.871E-01  0.871E-01  0.871E-01
   8.055  0.232E-01  0.580E-02  0.580E-02  0.580E-02  0.580E-02
   8.057  0.959E-02  0.240E-02  0.240E-02  0.240E-02  0.240E-02
   8.059  0.254E+00  0.635E-01  0.635E-01  0.635E-01  0.635E-01
   8.061  0.932E+00  0.233E+00  0.233E+00  0.233E+00  0.233E+00
   8.063  0.464E+00  0.116E+00  0.116E+00  0.116E+00  0.116E+00
   8.065  0.126E+00  0.314E-01  0.314E-01  0.314E-01  0.314E-01
   8.067  0.710E+00  0.177E+00  0.177E+00  0.177E+00  0.177E+00
   8.069  0.978E+00  0.244E+00  0.244E+00  0.244E+00  0.244E+00
   8.071  0.627E+00  0.157E+00  0.157E+00  0.157E+00  0.157E+00
   8.073  0.267E+00  0.667E-01  0.667E-01  0.667E-01  0.667E-01
   8.075  0.543E+00  0.136E+00  0.136E+00  0.136E+00  0.136E+00
   8.077  0.284E+00  0.710E-01  0.710E-01  0.710E-01  0.710E-01
   8.079  0.202E-01  0.506E-02  0.506E-02  0.506E-02  0.506E-02
   8.081  0.195E-03  0.488E-04  0.488E-04  0.488E-04  0.488E-04
   8.083  0.255E-06  0.638E-07  0.638E-07  0.638E-07  0.638E-07
   8.085  0.178E-06  0.445E-07  0.445E-07  0.445E-07  0.445E-07
   8.087  0.816E-04  0.204E-04  0.204E-04  0.204E-04  0.204E-04
   8.089  0.507E-02  0.127E-02  0.127E-02  0.127E-02  0.127E-02
   8.091  0.431E-01  0.108E-01  0.108E-01  0.108E-01  0.108E-01
   8.093  0.840E-01  0.210E-01  0.210E-01  0.210E-01  0.210E-01
   8.095  0.428E+00  0.107E+00  0.107E+00  0.107E+00  0.107E+00
   8.097  0.673E+00  0.168E+00  0.168E+00  0.168E+00  0.168E+00
   8.099  0.167E+00  0.418E-01  0.418E-01  0.418E-01  0.418E-01
   8.101  0.353E+00  0.883E-01  0.883E-01  0.883E-01  0.883E-01
   8.103  0.144E+01  0.360E+00  0.360E+00  0.360E+00  0.360E+00
   8.105  0.193E+01  0.482E+00  0.482E+00  0.482E+00  0.482E+00
   8.107  0.501E+00  0.125E+00  0.125E+00  0.125E+00  0.125E+00
   8.109  0.193E-01  0.484E-02  0.484E-02  0.484E-02  0.484E-02
   8.111  0.106E-03  0.264E-04  0.264E-04  0.264E-04  0.264E-04
   8.113  0.229E-03  0.572E-04  0.572E-04  0.572E-04  0.572E-04
   8.115  0.221E-01  0.553E-02  0.553E-02  0.553E-02  0.553E-02
   8.117  0.290E+00  0.724E-01  0.724E-01  0.724E-01  0.724E-01
   8.119  0.513E+00  0.128E+00  0.128E+00  0.128E+00  0.128E+00
   8.121  0.123E+00  0.308E-01  0.308E-01  0.308E-01  0.308E-01
   8.123  0.504E-02  0.126E-02  0.126E-02  0.126E-02  0.126E-02
   8.125  0.346E-01  0.866E-02  0.866E-02  0.866E-02  0.866E-02
   8.127  0.155E+00  0.388E-01  0.388E-01  0.388E-01  0.388E-01
   8.129  0.992E-01  0.248E-01  0.248E-01  0.248E-01  0.248E-01
   8.131  0.587E-01  0.147E-01  0.147E-01  0.147E-01  0.147E-01
   8.133  0.817E-01  0.204E-01  0.204E-01  0.204E-01  0.204E-01
   8.135  0.228E+00  0.570E-01  0.570E-01  0.570E-01  0.570E-01
   8.137  0.524E+00  0.131E+00  0.131E+00  0.131E+00  0.131E+00
   8.139  0.231E+00  0.578E-01  0.578E-01  0.578E-01  0.578E-01
   8.141  0.725E+00  0.181E+00  0.181E+00  0.181E+00  0.181E+00
   8.143  0.245E+01  0.612E+00  0.612E+00  0.612E+00  0.612E+00
   8.145  0.280E+01  0.701E+00  0.701E+00  0.701E+00  0.701E+00
   8.147  0.128E+01  0.319E+00  0.319E+00  0.319E+00  0.319E+00
   8.149  0.203E+01  0.507E+00  0.507E+00  0.507E+00  0.507E+00
   8.151  0.144E+01  0.360E+00  0.360E+00  0.360E+00  0.360E+00
   8.153  0.229E+00  0.572E-01  0.572E-01  0.572E-01  0.572E-01
   8.155  0.334E+00  0.835E-01  0.835E-01  0.835E-01  0.835E-01
   8.157  0.130E+01  0.324E+00  0.324E+00  0.324E+00  0.324E+00
   8.159  0.100E+01  0.251E+00  0.251E+00  0.251E+00  0.251E+00
   8.161  0.607E+00  0.152E+00  0.152E+00  0.152E+00  0.152E+00
   8.163  0.226E+00  0.565E-01  0.565E-01  0.565E-01  0.565E-01
   8.165  0.342E-01  0.855E-02  0.855E-02  0.855E-02  0.855E-02
   8.167  0.392E+00  0.980E-01  0.980E-01  0.980E-01  0.980E-01
   8.169  0.129E+01  0.321E+00  0.321E+00  0.321E+00  0.321E+00
   8.171  0.116E+01  0.289E+00  0.289E+00  0.289E+00  0.289E+00
   8.173  0.605E+00  0.151E+00  0.151E+00  0.151E+00  0.151E+00
   8.175  0.112E+00  0.279E-01  0.279E-01  0.279E-01  0.279E-01
   8.177  0.334E-02  0.834E-03  0.834E-03  0.834E-03  0.834E-03
   8.179  0.175E-02  0.438E-03  0.438E-03  0.438E-03  0.438E-03
   8.181  0.917E-01  0.229E-01  0.229E-01  0.229E-01  0.229E-01
   8.183  0.714E+00  0.179E+00  0.179E+00  0.179E+00  0.179E+00
   8.185  0.117E+01  0.292E+00  0.292E+00  0.292E+00  0.292E+00
   8.187  0.879E+00  0.220E+00  0.220E+00  0.220E+00  0.220E+00
   8.189  0.100E+01  0.251E+00  0.251E+00  0.251E+00  0.251E+00
   8.191  0.415E+00  0.104E+00  0.104E+00  0.104E+00  0.104E+00
   8.193  0.124E+00  0.310E-01  0.310E-01  0.310E-01  0.310E-01
   8.195  0.778E+00  0.194E+00  0.194E+00  0.194E+00  0.194E+00
   8.197  0.141E+01  0.353E+00  0.353E+00  0.353E+00  0.353E+00
   8.199  0.746E+00  0.186E+00  0.186E+00  0.186E+00  0.186E+00
   8.201  0.854E+00  0.214E+00  0.214E+00  0.214E+00  0.214E+00
   8.203  0.142E+01  0.355E+00  0.355E+00  0.355E+00  0.355E+00
   8.205  0.953E+00  0.238E+00  0.238E+00  0.238E+00  0.238E+00
   8.207  0.586E+00  0.147E+00  0.147E+00  0.147E+00  0.147E+00
   8.209  0.492E+00  0.123E+00  0.123E+00  0.123E+00  0.123E+00
   8.211  0.112E+00  0.280E-01  0.280E-01  0.280E-01  0.280E-01
   8.213  0.369E-02  0.922E-03  0.922E-03  0.922E-03  0.922E-03
   8.215  0.594E-02  0.149E-02  0.149E-02  0.149E-02  0.149E-02
   8.217  0.468E-01  0.117E-01  0.117E-01  0.117E-01  0.117E-01
   8.219  0.506E-01  0.127E-01  0.127E-01  0.127E-01  0.127E-01
   8.221  0.575E-01  0.144E-01  0.144E-01  0.144E-01  0.144E-01
   8.223  0.532E+00  0.133E+00  0.133E+00  0.133E+00  0.133E+00
   8.225  0.817E+00  0.204E+00  0.204E+00  0.204E+00  0.204E+00
   8.227  0.643E+00  0.161E+00  0.161E+00  0.161E+00  0.161E+00
   8.229  0.570E+00  0.143E+00  0.143E+00  0.143E+00  0.143E+00
   8.231  0.900E-01  0.225E-01  0.225E-01  0.225E-01  0.225E-01
   8.233  0.126E+00  0.314E-01  0.314E-01  0.314E-01  0.314E-01
   8.235  0.870E+00  0.217E+00  0.217E+00  0.217E+00  0.217E+00
   8.237  0.842E+00  0.211E+00  0.211E+00  0.211E+00  0.211E+00
   8.239  0.213E+00  0.533E-01  0.533E-01  0.533E-01  0.533E-01
   8.241  0.509E+00  0.127E+00  0.127E+00  0.127E+00  0.127E+00
   8.243  0.726E+00  0.181E+00  0.181E+00  0.181E+00  0.181E+00
   8.245  0.113E+01  0.283E+00  0.283E+00  0.283E+00  0.283E+00
   8.247  0.113E+01  0.283E+00  0.283E+00  0.283E+00  0.283E+00
   8.249  0.148E+01  0.370E+00  0.370E+00  0.370E+00  0.370E+00
   8.251  0.117E+01  0.293E+00  0.293E+00  0.293E+00  0.293E+00
   8.253  0.465E+00  0.116E+00  0.116E+00  0.116E+00  0.116E+00
   8.255  0.677E+00  0.169E+00  0.169E+00  0.169E+00  0.169E+00
   8.257  0.191E+00  0.478E-01  0.478E-01  0.478E-01  0.478E-01
   8.259  0.733E-02  0.183E-02  0.183E-02  0.183E-02  0.183E-02
   8.261  0.380E-04  0.951E-05  0.951E-05  0.951E-05  0.951E-05
   8.263  0.267E-07  0.668E-08  0.668E-08  0.668E-08  0.668E-08
   8.265  0.254E-11  0.635E-12  0.635E-12  0.635E-12  0.635E-12
   8.267  0.140E-12  0.350E-13  0.350E-13  0.350E-13  0.350E-13
   8.269  0.296E-08  0.740E-09  0.740E-09  0.740E-09  0.740E-09
   8.271  0.859E-05  0.215E-05  0.215E-05  0.215E-05  0.215E-05
   8.273  0.343E-02  0.857E-03  0.857E-03  0.857E-03  0.857E-03
   8.275  0.188E+00  0.470E-01  0.470E-01  0.470E-01  0.470E-01
   8.277  0.141E+01  0.354E+00  0.354E+00  0.354E+00  0.354E+00
   8.279  0.146E+01  0.365E+00  0.365E+00  0.365E+00  0.365E+00
   8.281  0.240E+00  0.601E-01  0.601E-01  0.601E-01  0.601E-01
   8.283  0.647E+00  0.162E+00  0.162E+00  0.162E+00  0.162E+00
   8.285  0.167E+01  0.418E+00  0.418E+00  0.418E+00  0.418E+00
   8.287  0.596E+00  0.149E+00  0.149E+00  0.149E+00  0.149E+00
   8.289  0.293E-01  0.733E-02  0.733E-02  0.733E-02  0.733E-02
   8.291  0.434E-02  0.108E-02  0.108E-02  0.108E-02  0.108E-02
   8.293  0.166E+00  0.415E-01  0.415E-01  0.415E-01  0.415E-01
   8.295  0.903E+00  0.226E+00  0.226E+00  0.226E+00  0.226E+00
   8.297  0.664E+00  0.166E+00  0.166E+00  0.166E+00  0.166E+00
   8.299  0.664E-01  0.166E-01  0.166E-01  0.166E-01  0.166E-01
   8.301  0.107E-01  0.267E-02  0.267E-02  0.267E-02  0.267E-02
   8.303  0.483E-01  0.121E-01  0.121E-01  0.121E-01  0.121E-01
   8.305  0.177E+00  0.442E-01  0.442E-01  0.442E-01  0.442E-01
   8.307  0.895E+00  0.224E+00  0.224E+00  0.224E+00  0.224E+00
   8.309  0.183E+01  0.458E+00  0.458E+00  0.458E+00  0.458E+00
   8.311  0.145E+01  0.362E+00  0.362E+00  0.362E+00  0.362E+00
   8.313  0.245E+00  0.612E-01  0.612E-01  0.612E-01  0.612E-01
   8.315  0.137E-01  0.342E-02  0.342E-02  0.342E-02  0.342E-02
   8.317  0.177E+00  0.441E-01  0.441E-01  0.441E-01  0.441E-01
   8.319  0.676E+00  0.169E+00  0.169E+00  0.169E+00  0.169E+00
   8.321  0.350E+00  0.875E-01  0.875E-01  0.875E-01  0.875E-01
   8.323  0.245E-01  0.614E-02  0.614E-02  0.614E-02  0.614E-02
   8.325  0.458E-03  0.115E-03  0.115E-03  0.115E-03  0.115E-03
   8.327  0.616E-02  0.154E-02  0.154E-02  0.154E-02  0.154E-02
   8.329  0.229E-01  0.572E-02  0.572E-02  0.572E-02  0.572E-02
   8.331  0.295E-01  0.738E-02  0.738E-02  0.738E-02  0.738E-02
   8.333  0.369E+00  0.922E-01  0.922E-01  0.922E-01  0.922E-01
   8.335  0.103E+01  0.258E+00  0.258E+00  0.258E+00  0.258E+00
   8.337  0.692E+00  0.173E+00  0.173E+00  0.173E+00  0.173E+00
   8.339  0.898E+00  0.225E+00  0.225E+00  0.225E+00  0.225E+00
   8.341  0.609E+00  0.152E+00  0.152E+00  0.152E+00  0.152E+00
   8.343  0.865E+00  0.216E+00  0.216E+00  0.216E+00  0.216E+00
   8.345  0.173E+01  0.432E+00  0.432E+00  0.432E+00  0.432E+00
   8.347  0.837E+00  0.209E+00  0.209E+00  0.209E+00  0.209E+00
   8.349  0.756E-01  0.189E-01  0.189E-01  0.189E-01  0.189E-01
   8.351  0.105E-02  0.261E-03  0.261E-03  0.261E-03  0.261E-03
   8.353  0.419E-02  0.105E-02  0.105E-02  0.105E-02  0.105E-02
   8.355  0.142E+00  0.356E-01  0.356E-01  0.356E-01  0.356E-01
   8.357  0.656E+00  0.164E+00  0.164E+00  0.164E+00  0.164E+00
   8.359  0.411E+00  0.103E+00  0.103E+00  0.103E+00  0.103E+00
   8.361  0.137E+00  0.343E-01  0.343E-01  0.343E-01  0.343E-01
   8.363  0.609E+00  0.152E+00  0.152E+00  0.152E+00  0.152E+00
   8.365  0.781E+00  0.195E+00  0.195E+00  0.195E+00  0.195E+00
   8.367  0.693E+00  0.173E+00  0.173E+00  0.173E+00  0.173E+00
   8.369  0.618E+00  0.155E+00  0.155E+00  0.155E+00  0.155E+00
   8.371  0.982E-01  0.245E-01  0.245E-01  0.245E-01  0.245E-01
   8.373  0.213E-02  0.534E-03  0.534E-03  0.534E-03  0.534E-03
   8.375  0.417E-04  0.104E-04  0.104E-04  0.104E-04  0.104E-04
   8.377  0.781E-02  0.195E-02  0.195E-02  0.195E-02  0.195E-02
   8.379  0.234E+00  0.584E-01  0.584E-01  0.584E-01  0.584E-01
   8.381  0.975E+00  0.244E+00  0.244E+00  0.244E+00  0.244E+00
   8.383  0.105E+01  0.263E+00  0.263E+00  0.263E+00  0.263E+00
   8.385  0.179E+01  0.448E+00  0.448E+00  0.448E+00  0.448E+00
   8.387  0.106E+01  0.264E+00  0.264E+00  0.264E+00  0.264E+00
   8.389  0.112E+00  0.280E-01  0.280E-01  0.280E-01  0.280E-01
   8.391  0.603E-02  0.151E-02  0.151E-02  0.151E-02  0.151E-02
   8.393  0.149E+00  0.372E-01  0.372E-01  0.372E-01  0.372E-01
   8.395  0.900E+00  0.225E+00  0.225E+00  0.225E+00  0.225E+00
   8.397  0.850E+00  0.213E+00  0.213E+00  0.213E+00  0.213E+00
   8.399  0.976E+00  0.244E+00  0.244E+00  0.244E+00  0.244E+00
   8.401  0.136E+01  0.340E+00  0.340E+00  0.340E+00  0.340E+00
   8.403  0.461E+00  0.115E+00  0.115E+00  0.115E+00  0.115E+00
   8.405  0.346E-01  0.865E-02  0.865E-02  0.865E-02  0.865E-02
   8.407  0.155E-01  0.387E-02  0.387E-02  0.387E-02  0.387E-02
   8.409  0.296E-01  0.739E-02  0.739E-02  0.739E-02  0.739E-02
   8.411  0.388E+00  0.969E-01  0.969E-01  0.969E-01  0.969E-01
   8.413  0.891E+00  0.223E+00  0.223E+00  0.223E+00  0.223E+00
   8.415  0.288E+00  0.721E-01  0.721E-01  0.721E-01  0.721E-01
   8.417  0.165E+00  0.413E-01  0.413E-01  0.413E-01  0.413E-01
   8.419  0.132E+01  0.329E+00  0.329E+00  0.329E+00  0.329E+00
   8.421  0.236E+01  0.590E+00  0.590E+00  0.590E+00  0.590E+00
   8.423  0.153E+01  0.383E+00  0.383E+00  0.383E+00  0.383E+00
   8.425  0.486E+00  0.122E+00  0.122E+00  0.122E+00  0.122E+00
   8.427  0.443E+00  0.111E+00  0.111E+00  0.111E+00  0.111E+00
   8.429  0.336E+00  0.841E-01  0.841E-01  0.841E-01  0.841E-01
   8.431  0.584E+00  0.146E+00  0.146E+00  0.146E+00  0.146E+00
   8.433  0.979E+00  0.245E+00  0.245E+00  0.245E+00  0.245E+00
   8.435  0.123E+01  0.307E+00  0.307E+00  0.307E+00  0.307E+00
   8.437  0.101E+01  0.252E+00  0.252E+00  0.252E+00  0.252E+00
   8.439  0.222E+00  0.555E-01  0.555E-01  0.555E-01  0.555E-01
   8.441  0.108E+00  0.269E-01  0.269E-01  0.269E-01  0.269E-01
   8.443  0.748E+00  0.187E+00  0.187E+00  0.187E+00  0.187E+00
   8.445  0.185E+01  0.462E+00  0.462E+00  0.462E+00  0.462E+00
   8.447  0.116E+01  0.291E+00  0.291E+00  0.291E+00  0.291E+00
   8.449  0.141E+00  0.351E-01  0.351E-01  0.351E-01  0.351E-01
   8.451  0.420E-02  0.105E-02  0.105E-02  0.105E-02  0.105E-02
   8.453  0.644E-01  0.161E-01  0.161E-01  0.161E-01  0.161E-01
   8.455  0.392E+00  0.979E-01  0.979E-01  0.979E-01  0.979E-01
   8.457  0.328E+00  0.821E-01  0.821E-01  0.821E-01  0.821E-01
   8.459  0.242E+00  0.604E-01  0.604E-01  0.604E-01  0.604E-01
   8.461  0.965E+00  0.241E+00  0.241E+00  0.241E+00  0.241E+00
   8.463  0.612E+00  0.153E+00  0.153E+00  0.153E+00  0.153E+00
   8.465  0.536E-01  0.134E-01  0.134E-01  0.134E-01  0.134E-01
   8.467  0.313E-01  0.783E-02  0.783E-02  0.783E-02  0.783E-02
   8.469  0.275E+00  0.686E-01  0.686E-01  0.686E-01  0.686E-01
   8.471  0.448E+00  0.112E+00  0.112E+00  0.112E+00  0.112E+00
   8.473  0.105E+00  0.262E-01  0.262E-01  0.262E-01  0.262E-01
   8.475  0.335E-02  0.838E-03  0.838E-03  0.838E-03  0.838E-03
   8.477  0.180E-04  0.451E-05  0.451E-05  0.451E-05  0.451E-05
   8.479  0.420E-03  0.105E-03  0.105E-03  0.105E-03  0.105E-03
   8.481  0.216E-01  0.540E-02  0.540E-02  0.540E-02  0.540E-02
   8.483  0.583E+00  0.146E+00  0.146E+00  0.146E+00  0.146E+00
   8.485  0.318E+01  0.794E+00  0.794E+00  0.794E+00  0.794E+00
   8.487  0.359E+01  0.897E+00  0.897E+00  0.897E+00  0.897E+00
   8.489  0.236E+01  0.589E+00  0.589E+00  0.589E+00  0.589E+00
   8.491  0.173E+01  0.432E+00  0.432E+00  0.432E+00  0.432E+00
   8.493  0.184E+01  0.461E+00  0.461E+00  0.461E+00  0.461E+00
   8.495  0.226E+01  0.565E+00  0.565E+00  0.565E+00  0.565E+00
   8.497  0.211E+01  0.528E+00  0.528E+00  0.528E+00  0.528E+00
   8.499  0.141E+01  0.352E+00  0.352E+00  0.352E+00  0.352E+00
   8.501  0.162E+01  0.406E+00  0.406E+00  0.406E+00  0.406E+00
   8.503  0.200E+01  0.499E+00  0.499E+00  0.499E+00  0.499E+00
   8.505  0.143E+01  0.357E+00  0.357E+00  0.357E+00  0.357E+00
   8.507  0.103E+01  0.257E+00  0.257E+00  0.257E+00  0.257E+00
   8.509  0.797E+00  0.199E+00  0.199E+00  0.199E+00  0.199E+00
   8.511  0.108E+01  0.271E+00  0.271E+00  0.271E+00  0.271E+00
   8.513  0.411E+00  0.103E+00  0.103E+00  0.103E+00  0.103E+00
   8.515  0.314E+00  0.786E-01  0.786E-01  0.786E-01  0.786E-01
   8.517  0.924E+00  0.231E+00  0.231E+00  0.231E+00  0.231E+00
   8.519  0.514E+00  0.129E+00  0.129E+00  0.129E+00  0.129E+00
   8.521  0.865E+00  0.216E+00  0.216E+00  0.216E+00  0.216E+00
   8.523  0.784E+00  0.196E+00  0.196E+00  0.196E+00  0.196E+00
   8.525  0.993E-01  0.248E-01  0.248E-01  0.248E-01  0.248E-01
   8.527  0.396E-01  0.990E-02  0.990E-02  0.990E-02  0.990E-02
   8.529  0.564E+00  0.141E+00  0.141E+00  0.141E+00  0.141E+00
   8.531  0.182E+01  0.454E+00  0.454E+00  0.454E+00  0.454E+00
   8.533  0.236E+01  0.590E+00  0.590E+00  0.590E+00  0.590E+00
   8.535  0.285E+01  0.713E+00  0.713E+00  0.713E+00  0.713E+00
   8.537  0.635E+01  0.159E+01  0.159E+01  0.159E+01  0.159E+01
   8.539  0.716E+01  0.179E+01  0.179E+01  0.179E+01  0.179E+01
   8.541  0.483E+01  0.121E+01  0.121E+01  0.121E+01  0.121E+01
   8.543  0.365E+01  0.913E+00  0.913E+00  0.913E+00  0.913E+00
   8.545  0.405E+01  0.101E+01  0.101E+01  0.101E+01  0.101E+01
   8.547  0.408E+01  0.102E+01  0.102E+01  0.102E+01  0.102E+01
   8.549  0.343E+01  0.857E+00  0.857E+00  0.857E+00  0.857E+00
   8.551  0.320E+01  0.800E+00  0.800E+00  0.800E+00  0.800E+00
   8.553  0.228E+01  0.571E+00  0.571E+00  0.571E+00  0.571E+00
   8.555  0.164E+01  0.411E+00  0.411E+00  0.411E+00  0.411E+00
   8.557  0.282E+01  0.706E+00  0.706E+00  0.706E+00  0.706E+00
   8.559  0.147E+01  0.368E+00  0.368E+00  0.368E+00  0.368E+00
   8.561  0.137E+01  0.342E+00  0.342E+00  0.342E+00  0.342E+00
   8.563  0.214E+01  0.535E+00  0.535E+00  0.535E+00  0.535E+00
   8.565  0.279E+01  0.697E+00  0.697E+00  0.697E+00  0.697E+00
   8.567  0.252E+01  0.629E+00  0.629E+00  0.629E+00  0.629E+00
   8.569  0.121E+01  0.304E+00  0.304E+00  0.304E+00  0.304E+00
   8.571  0.154E+01  0.386E+00  0.386E+00  0.386E+00  0.386E+00
   8.573  0.193E+01  0.483E+00  0.483E+00  0.483E+00  0.483E+00
   8.575  0.177E+01  0.443E+00  0.443E+00  0.443E+00  0.443E+00
   8.577  0.236E+01  0.591E+00  0.591E+00  0.591E+00  0.591E+00
   8.579  0.276E+01  0.690E+00  0.690E+00  0.690E+00  0.690E+00
   8.581  0.129E+01  0.322E+00  0.322E+00  0.322E+00  0.322E+00
   8.583  0.299E+01  0.748E+00  0.748E+00  0.748E+00  0.748E+00
   8.585  0.419E+01  0.105E+01  0.105E+01  0.105E+01  0.105E+01
   8.587  0.175E+01  0.437E+00  0.437E+00  0.437E+00  0.437E+00
   8.589  0.958E+00  0.239E+00  0.239E+00  0.239E+00  0.239E+00
   8.591  0.725E+00  0.181E+00  0.181E+00  0.181E+00  0.181E+00
   8.593  0.136E+01  0.340E+00  0.340E+00  0.340E+00  0.340E+00
   8.595  0.231E+01  0.577E+00  0.577E+00  0.577E+00  0.577E+00
   8.597  0.198E+01  0.495E+00  0.495E+00  0.495E+00  0.495E+00
   8.599  0.796E+00  0.199E+00  0.199E+00  0.199E+00  0.199E+00
   8.601  0.822E+00  0.206E+00  0.206E+00  0.206E+00  0.206E+00
   8.603  0.846E+00  0.212E+00  0.212E+00  0.212E+00  0.212E+00
   8.605  0.133E+00  0.332E-01  0.332E-01  0.332E-01  0.332E-01
   8.607  0.225E+00  0.563E-01  0.563E-01  0.563E-01  0.563E-01
   8.609  0.205E+01  0.513E+00  0.513E+00  0.513E+00  0.513E+00
   8.611  0.666E+01  0.167E+01  0.167E+01  0.167E+01  0.167E+01
   8.613  0.690E+01  0.172E+01  0.172E+01  0.172E+01  0.172E+01
   8.615  0.363E+01  0.909E+00  0.909E+00  0.909E+00  0.909E+00
   8.617  0.297E+01  0.742E+00  0.742E+00  0.742E+00  0.742E+00
   8.619  0.279E+01  0.697E+00  0.697E+00  0.697E+00  0.697E+00
   8.621  0.370E+01  0.924E+00  0.924E+00  0.924E+00  0.924E+00
   8.623  0.528E+01  0.132E+01  0.132E+01  0.132E+01  0.132E+01
   8.625  0.229E+01  0.573E+00  0.573E+00  0.573E+00  0.573E+00
   8.627  0.170E+01  0.424E+00  0.424E+00  0.424E+00  0.424E+00
   8.629  0.308E+01  0.770E+00  0.770E+00  0.770E+00  0.770E+00
   8.631  0.230E+01  0.575E+00  0.575E+00  0.575E+00  0.575E+00
   8.633  0.128E+01  0.321E+00  0.321E+00  0.321E+00  0.321E+00
   8.635  0.572E+00  0.143E+00  0.143E+00  0.143E+00  0.143E+00
   8.637  0.168E+01  0.419E+00  0.419E+00  0.419E+00  0.419E+00
   8.639  0.233E+01  0.582E+00  0.582E+00  0.582E+00  0.582E+00
   8.641  0.196E+01  0.489E+00  0.489E+00  0.489E+00  0.489E+00
   8.643  0.269E+01  0.674E+00  0.674E+00  0.674E+00  0.674E+00
   8.645  0.399E+01  0.997E+00  0.997E+00  0.997E+00  0.997E+00
   8.647  0.354E+01  0.886E+00  0.886E+00  0.886E+00  0.886E+00
   8.649  0.145E+01  0.363E+00  0.363E+00  0.363E+00  0.363E+00
   8.651  0.336E+00  0.839E-01  0.839E-01  0.839E-01  0.839E-01
   8.653  0.147E+01  0.367E+00  0.367E+00  0.367E+00  0.367E+00
   8.655  0.370E+01  0.925E+00  0.925E+00  0.925E+00  0.925E+00
   8.657  0.515E+01  0.129E+01  0.129E+01  0.129E+01  0.129E+01
   8.659  0.307E+01  0.769E+00  0.769E+00  0.769E+00  0.769E+00
   8.661  0.214E+01  0.536E+00  0.536E+00  0.536E+00  0.536E+00
   8.663  0.105E+01  0.262E+00  0.262E+00  0.262E+00  0.262E+00
   8.665  0.164E+00  0.411E-01  0.411E-01  0.411E-01  0.411E-01
   8.667  0.114E+01  0.284E+00  0.284E+00  0.284E+00  0.284E+00
   8.669  0.294E+01  0.734E+00  0.734E+00  0.734E+00  0.734E+00
   8.671  0.225E+01  0.563E+00  0.563E+00  0.563E+00  0.563E+00
   8.673  0.101E+01  0.252E+00  0.252E+00  0.252E+00  0.252E+00
   8.675  0.191E+01  0.478E+00  0.478E+00  0.478E+00  0.478E+00
   8.677  0.249E+01  0.622E+00  0.622E+00  0.622E+00  0.622E+00
   8.679  0.221E+01  0.552E+00  0.552E+00  0.552E+00  0.552E+00
   8.681  0.405E+01  0.101E+01  0.101E+01  0.101E+01  0.101E+01
   8.683  0.528E+01  0.132E+01  0.132E+01  0.132E+01  0.132E+01
   8.685  0.301E+01  0.754E+00  0.754E+00  0.754E+00  0.754E+00
   8.687  0.770E+00  0.193E+00  0.193E+00  0.193E+00  0.193E+00
   8.689  0.173E+01  0.433E+00  0.433E+00  0.433E+00  0.433E+00
   8.691  0.270E+01  0.675E+00  0.675E+00  0.675E+00  0.675E+00
   8.693  0.139E+01  0.347E+00  0.347E+00  0.347E+00  0.347E+00
   8.695  0.684E+00  0.171E+00  0.171E+00  0.171E+00  0.171E+00
   8.697  0.115E+01  0.286E+00  0.286E+00  0.286E+00  0.286E+00
   8.699  0.218E+01  0.546E+00  0.546E+00  0.546E+00  0.546E+00
   8.701  0.407E+01  0.102E+01  0.102E+01  0.102E+01  0.102E+01
   8.703  0.478E+01  0.119E+01  0.119E+01  0.119E+01  0.119E+01
   8.705  0.478E+01  0.119E+01  0.119E+01  0.119E+01  0.119E+01
   8.707  0.156E+01  0.390E+00  0.390E+00  0.390E+00  0.390E+00
   8.709  0.272E+01  0.679E+00  0.679E+00  0.679E+00  0.679E+00
   8.711  0.294E+01  0.736E+00  0.736E+00  0.736E+00  0.736E+00
   8.713  0.773E+00  0.193E+00  0.193E+00  0.193E+00  0.193E+00
   8.715  0.310E+01  0.776E+00  0.776E+00  0.776E+00  0.776E+00
   8.717  0.793E+01  0.198E+01  0.198E+01  0.198E+01  0.198E+01
   8.719  0.624E+01  0.156E+01  0.156E+01  0.156E+01  0.156E+01
   8.721  0.789E+01  0.197E+01  0.197E+01  0.197E+01  0.197E+01
   8.723  0.675E+01  0.169E+01  0.169E+01  0.169E+01  0.169E+01
   8.725  0.183E+01  0.457E+00  0.457E+00  0.457E+00  0.457E+00
   8.727  0.761E+00  0.190E+00  0.190E+00  0.190E+00  0.190E+00
   8.729  0.135E+00  0.338E-01  0.338E-01  0.338E-01  0.338E-01
   8.731  0.234E+00  0.584E-01  0.584E-01  0.584E-01  0.584E-01
   8.733  0.885E+00  0.221E+00  0.221E+00  0.221E+00  0.221E+00
   8.735  0.463E+00  0.116E+00  0.116E+00  0.116E+00  0.116E+00
   8.737  0.218E+00  0.544E-01  0.544E-01  0.544E-01  0.544E-01
   8.739  0.130E+01  0.325E+00  0.325E+00  0.325E+00  0.325E+00
   8.741  0.131E+01  0.329E+00  0.329E+00  0.329E+00  0.329E+00
   8.743  0.214E+00  0.536E-01  0.536E-01  0.536E-01  0.536E-01
   8.745  0.368E+00  0.920E-01  0.920E-01  0.920E-01  0.920E-01
   8.747  0.780E+00  0.195E+00  0.195E+00  0.195E+00  0.195E+00
   8.749  0.564E+00  0.141E+00  0.141E+00  0.141E+00  0.141E+00
   8.751  0.127E+01  0.318E+00  0.318E+00  0.318E+00  0.318E+00
   8.753  0.118E+01  0.295E+00  0.295E+00  0.295E+00  0.295E+00
   8.755  0.257E+00  0.643E-01  0.643E-01  0.643E-01  0.643E-01
   8.757  0.109E-01  0.271E-02  0.271E-02  0.271E-02  0.271E-02
   8.759  0.777E-01  0.194E-01  0.194E-01  0.194E-01  0.194E-01
   8.761  0.548E+00  0.137E+00  0.137E+00  0.137E+00  0.137E+00
   8.763  0.103E+01  0.258E+00  0.258E+00  0.258E+00  0.258E+00
   8.765  0.783E+00  0.196E+00  0.196E+00  0.196E+00  0.196E+00
   8.767  0.116E+00  0.291E-01  0.291E-01  0.291E-01  0.291E-01
   8.769  0.759E-02  0.190E-02  0.190E-02  0.190E-02  0.190E-02
   8.771  0.179E+00  0.449E-01  0.449E-01  0.449E-01  0.449E-01
   8.773  0.862E+00  0.215E+00  0.215E+00  0.215E+00  0.215E+00
   8.775  0.929E+00  0.232E+00  0.232E+00  0.232E+00  0.232E+00
   8.777  0.160E+01  0.400E+00  0.400E+00  0.400E+00  0.400E+00
   8.779  0.866E+00  0.216E+00  0.216E+00  0.216E+00  0.216E+00
   8.781  0.666E-01  0.166E-01  0.166E-01  0.166E-01  0.166E-01
   8.783  0.757E-03  0.189E-03  0.189E-03  0.189E-03  0.189E-03
   8.785  0.952E-02  0.238E-02  0.238E-02  0.238E-02  0.238E-02
   8.787  0.249E+00  0.622E-01  0.622E-01  0.622E-01  0.622E-01
   8.789  0.881E+00  0.220E+00  0.220E+00  0.220E+00  0.220E+00
   8.791  0.424E+00  0.106E+00  0.106E+00  0.106E+00  0.106E+00
   8.793  0.139E+00  0.348E-01  0.348E-01  0.348E-01  0.348E-01
   8.795  0.751E+00  0.188E+00  0.188E+00  0.188E+00  0.188E+00
   8.797  0.681E+00  0.170E+00  0.170E+00  0.170E+00  0.170E+00
   8.799  0.838E-01  0.210E-01  0.210E-01  0.210E-01  0.210E-01
   8.801  0.321E-01  0.802E-02  0.802E-02  0.802E-02  0.802E-02
   8.803  0.692E+00  0.173E+00  0.173E+00  0.173E+00  0.173E+00
   8.805  0.212E+01  0.531E+00  0.531E+00  0.531E+00  0.531E+00
   8.807  0.887E+00  0.222E+00  0.222E+00  0.222E+00  0.222E+00
   8.809  0.504E-01  0.126E-01  0.126E-01  0.126E-01  0.126E-01
   8.811  0.625E-02  0.156E-02  0.156E-02  0.156E-02  0.156E-02
   8.813  0.195E+00  0.487E-01  0.487E-01  0.487E-01  0.487E-01
   8.815  0.969E+00  0.242E+00  0.242E+00  0.242E+00  0.242E+00
   8.817  0.134E+01  0.335E+00  0.335E+00  0.335E+00  0.335E+00
   8.819  0.158E+01  0.394E+00  0.394E+00  0.394E+00  0.394E+00
   8.821  0.140E+01  0.351E+00  0.351E+00  0.351E+00  0.351E+00
   8.823  0.503E+00  0.126E+00  0.126E+00  0.126E+00  0.126E+00
   8.825  0.365E-01  0.912E-02  0.912E-02  0.912E-02  0.912E-02
   8.827  0.392E-03  0.979E-04  0.979E-04  0.979E-04  0.979E-04
   8.829  0.178E-03  0.446E-04  0.446E-04  0.446E-04  0.446E-04
   8.831  0.219E-01  0.548E-02  0.548E-02  0.548E-02  0.548E-02
   8.833  0.365E+00  0.914E-01  0.914E-01  0.914E-01  0.914E-01
   8.835  0.825E+00  0.206E+00  0.206E+00  0.206E+00  0.206E+00
   8.837  0.252E+00  0.631E-01  0.631E-01  0.631E-01  0.631E-01
   8.839  0.450E-01  0.112E-01  0.112E-01  0.112E-01  0.112E-01
   8.841  0.501E+00  0.125E+00  0.125E+00  0.125E+00  0.125E+00
   8.843  0.131E+01  0.327E+00  0.327E+00  0.327E+00  0.327E+00
   8.845  0.114E+01  0.286E+00  0.286E+00  0.286E+00  0.286E+00
   8.847  0.291E+00  0.727E-01  0.727E-01  0.727E-01  0.727E-01
   8.849  0.228E+00  0.571E-01  0.571E-01  0.571E-01  0.571E-01
   8.851  0.594E+00  0.149E+00  0.149E+00  0.149E+00  0.149E+00
   8.853  0.220E+00  0.550E-01  0.550E-01  0.550E-01  0.550E-01
   8.855  0.116E-01  0.290E-02  0.290E-02  0.290E-02  0.290E-02
   8.857  0.449E-01  0.112E-01  0.112E-01  0.112E-01  0.112E-01
   8.859  0.479E+00  0.120E+00  0.120E+00  0.120E+00  0.120E+00
   8.861  0.693E+00  0.173E+00  0.173E+00  0.173E+00  0.173E+00
   8.863  0.212E+00  0.530E-01  0.530E-01  0.530E-01  0.530E-01
   8.865  0.624E+00  0.156E+00  0.156E+00  0.156E+00  0.156E+00
   8.867  0.759E+00  0.190E+00  0.190E+00  0.190E+00  0.190E+00
   8.869  0.108E+01  0.271E+00  0.271E+00  0.271E+00  0.271E+00
   8.871  0.177E+01  0.442E+00  0.442E+00  0.442E+00  0.442E+00
   8.873  0.462E+00  0.116E+00  0.116E+00  0.116E+00  0.116E+00
   8.875  0.175E-01  0.438E-02  0.438E-02  0.438E-02  0.438E-02
   8.877  0.950E-04  0.237E-04  0.237E-04  0.237E-04  0.237E-04
   8.879  0.723E-07  0.181E-07  0.181E-07  0.181E-07  0.181E-07
   8.881  0.325E-09  0.812E-10  0.812E-10  0.812E-10  0.812E-10
   8.883  0.125E-05  0.313E-06  0.313E-06  0.313E-06  0.313E-06
   8.885  0.670E-03  0.168E-03  0.168E-03  0.168E-03  0.168E-03
   8.887  0.485E-01  0.121E-01  0.121E-01  0.121E-01  0.121E-01
   8.889  0.475E+00  0.119E+00  0.119E+00  0.119E+00  0.119E+00
   8.891  0.630E+00  0.157E+00  0.157E+00  0.157E+00  0.157E+00
   8.893  0.120E+00  0.300E-01  0.300E-01  0.300E-01  0.300E-01
   8.895  0.297E+00  0.742E-01  0.742E-01  0.742E-01  0.742E-01
   8.897  0.200E+01  0.500E+00  0.500E+00  0.500E+00  0.500E+00
   8.899  0.295E+01  0.737E+00  0.737E+00  0.737E+00  0.737E+00
   8.901  0.163E+01  0.407E+00  0.407E+00  0.407E+00  0.407E+00
   8.903  0.649E+00  0.162E+00  0.162E+00  0.162E+00  0.162E+00
   8.905  0.762E+00  0.190E+00  0.190E+00  0.190E+00  0.190E+00
   8.907  0.314E+00  0.785E-01  0.785E-01  0.785E-01  0.785E-01
   8.909  0.180E-01  0.451E-02  0.451E-02  0.451E-02  0.451E-02
   8.911  0.140E-03  0.351E-04  0.351E-04  0.351E-04  0.351E-04
   8.913  0.148E-06  0.370E-07  0.370E-07  0.370E-07  0.370E-07
   8.915  0.141E-08  0.352E-09  0.352E-09  0.352E-09  0.352E-09
   8.917  0.425E-05  0.106E-05  0.106E-05  0.106E-05  0.106E-05
   8.919  0.179E-02  0.449E-03  0.449E-03  0.449E-03  0.449E-03
   8.921  0.108E+00  0.269E-01  0.269E-01  0.269E-01  0.269E-01
   8.923  0.101E+01  0.251E+00  0.251E+00  0.251E+00  0.251E+00
   8.925  0.168E+01  0.421E+00  0.421E+00  0.421E+00  0.421E+00
   8.927  0.537E+00  0.134E+00  0.134E+00  0.134E+00  0.134E+00
   8.929  0.323E-01  0.808E-02  0.808E-02  0.808E-02  0.808E-02
   8.931  0.132E+00  0.330E-01  0.330E-01  0.330E-01  0.330E-01
   8.933  0.738E+00  0.185E+00  0.185E+00  0.185E+00  0.185E+00
   8.935  0.559E+00  0.140E+00  0.140E+00  0.140E+00  0.140E+00
   8.937  0.573E-01  0.143E-01  0.143E-01  0.143E-01  0.143E-01
   8.939  0.796E-03  0.199E-03  0.199E-03  0.199E-03  0.199E-03
   8.941  0.151E-05  0.378E-06  0.378E-06  0.378E-06  0.378E-06
   8.943  0.299E-04  0.747E-05  0.747E-05  0.747E-05  0.747E-05
   8.945  0.721E-02  0.180E-02  0.180E-02  0.180E-02  0.180E-02
   8.947  0.260E+00  0.651E-01  0.651E-01  0.651E-01  0.651E-01
   8.949  0.171E+01  0.427E+00  0.427E+00  0.427E+00  0.427E+00
   8.951  0.266E+01  0.664E+00  0.664E+00  0.664E+00  0.664E+00
   8.953  0.105E+01  0.263E+00  0.263E+00  0.263E+00  0.263E+00
   8.955  0.905E-01  0.226E-01  0.226E-01  0.226E-01  0.226E-01
   8.957  0.136E-02  0.340E-03  0.340E-03  0.340E-03  0.340E-03
   8.959  0.308E-05  0.769E-06  0.769E-06  0.769E-06  0.769E-06
   8.961  0.186E-08  0.465E-09  0.465E-09  0.465E-09  0.465E-09
   8.963  0.290E-05  0.724E-06  0.724E-06  0.724E-06  0.724E-06
   8.965  0.128E-02  0.321E-03  0.321E-03  0.321E-03  0.321E-03
   8.967  0.773E-01  0.193E-01  0.193E-01  0.193E-01  0.193E-01
   8.969  0.660E+00  0.165E+00  0.165E+00  0.165E+00  0.165E+00
   8.971  0.127E+01  0.319E+00  0.319E+00  0.319E+00  0.319E+00
   8.973  0.182E+01  0.454E+00  0.454E+00  0.454E+00  0.454E+00
   8.975  0.101E+01  0.254E+00  0.254E+00  0.254E+00  0.254E+00
   8.977  0.527E+00  0.132E+00  0.132E+00  0.132E+00  0.132E+00
   8.979  0.636E+00  0.159E+00  0.159E+00  0.159E+00  0.159E+00
   8.981  0.130E+00  0.324E-01  0.324E-01  0.324E-01  0.324E-01
   8.983  0.111E+00  0.279E-01  0.279E-01  0.279E-01  0.279E-01
   8.985  0.665E+00  0.166E+00  0.166E+00  0.166E+00  0.166E+00
   8.987  0.555E+00  0.139E+00  0.139E+00  0.139E+00  0.139E+00
   8.989  0.115E+00  0.287E-01  0.287E-01  0.287E-01  0.287E-01
   8.991  0.781E+00  0.195E+00  0.195E+00  0.195E+00  0.195E+00
   8.993  0.184E+01  0.461E+00  0.461E+00  0.461E+00  0.461E+00
   8.995  0.709E+00  0.177E+00  0.177E+00  0.177E+00  0.177E+00
   8.997  0.693E-01  0.173E-01  0.173E-01  0.173E-01  0.173E-01
   8.999  0.358E+00  0.896E-01  0.896E-01  0.896E-01  0.896E-01
   9.001  0.689E+00  0.172E+00  0.172E+00  0.172E+00  0.172E+00
   9.003  0.529E+00  0.132E+00  0.132E+00  0.132E+00  0.132E+00
   9.005  0.915E+00  0.229E+00  0.229E+00  0.229E+00  0.229E+00
   9.007  0.228E+01  0.570E+00  0.570E+00  0.570E+00  0.570E+00
   9.009  0.219E+01  0.546E+00  0.546E+00  0.546E+00  0.546E+00
   9.011  0.314E+00  0.785E-01  0.785E-01  0.785E-01  0.785E-01
   9.013  0.225E-01  0.564E-02  0.564E-02  0.564E-02  0.564E-02
   9.015  0.474E+00  0.119E+00  0.119E+00  0.119E+00  0.119E+00
   9.017  0.196E+01  0.489E+00  0.489E+00  0.489E+00  0.489E+00
   9.019  0.216E+01  0.541E+00  0.541E+00  0.541E+00  0.541E+00
   9.021  0.276E+01  0.689E+00  0.689E+00  0.689E+00  0.689E+00
   9.023  0.133E+01  0.332E+00  0.332E+00  0.332E+00  0.332E+00
   9.025  0.967E+00  0.242E+00  0.242E+00  0.242E+00  0.242E+00
   9.027  0.635E+00  0.159E+00  0.159E+00  0.159E+00  0.159E+00
   9.029  0.160E+00  0.401E-01  0.401E-01  0.401E-01  0.401E-01
   9.031  0.749E+00  0.187E+00  0.187E+00  0.187E+00  0.187E+00
   9.033  0.772E+00  0.193E+00  0.193E+00  0.193E+00  0.193E+00
   9.035  0.108E+00  0.270E-01  0.270E-01  0.270E-01  0.270E-01
   9.037  0.236E-01  0.590E-02  0.590E-02  0.590E-02  0.590E-02
   9.039  0.394E+00  0.985E-01  0.985E-01  0.985E-01  0.985E-01
   9.041  0.975E+00  0.244E+00  0.244E+00  0.244E+00  0.244E+00
   9.043  0.328E+00  0.821E-01  0.821E-01  0.821E-01  0.821E-01
   9.045  0.112E+00  0.279E-01  0.279E-01  0.279E-01  0.279E-01
   9.047  0.695E+00  0.174E+00  0.174E+00  0.174E+00  0.174E+00
   9.049  0.991E+00  0.248E+00  0.248E+00  0.248E+00  0.248E+00
   9.051  0.138E+01  0.344E+00  0.344E+00  0.344E+00  0.344E+00
   9.053  0.106E+01  0.266E+00  0.266E+00  0.266E+00  0.266E+00
   9.055  0.164E+00  0.411E-01  0.411E-01  0.411E-01  0.411E-01
   9.057  0.151E-01  0.377E-02  0.377E-02  0.377E-02  0.377E-02
   9.059  0.233E+00  0.583E-01  0.583E-01  0.583E-01  0.583E-01
   9.061  0.659E+00  0.165E+00  0.165E+00  0.165E+00  0.165E+00
   9.063  0.332E+00  0.830E-01  0.830E-01  0.830E-01  0.830E-01
   9.065  0.756E+00  0.189E+00  0.189E+00  0.189E+00  0.189E+00
   9.067  0.126E+01  0.315E+00  0.315E+00  0.315E+00  0.315E+00
   9.069  0.711E+00  0.178E+00  0.178E+00  0.178E+00  0.178E+00
   9.071  0.133E+00  0.331E-01  0.331E-01  0.331E-01  0.331E-01
   9.073  0.379E+00  0.949E-01  0.949E-01  0.949E-01  0.949E-01
   9.075  0.758E+00  0.189E+00  0.189E+00  0.189E+00  0.189E+00
   9.077  0.207E+00  0.516E-01  0.516E-01  0.516E-01  0.516E-01
   9.079  0.527E-01  0.132E-01  0.132E-01  0.132E-01  0.132E-01
   9.081  0.556E+00  0.139E+00  0.139E+00  0.139E+00  0.139E+00
   9.083  0.927E+00  0.232E+00  0.232E+00  0.232E+00  0.232E+00
   9.085  0.216E+00  0.540E-01  0.540E-01  0.540E-01  0.540E-01
   9.087  0.209E+00  0.524E-01  0.524E-01  0.524E-01  0.524E-01
   9.089  0.817E+00  0.204E+00  0.204E+00  0.204E+00  0.204E+00
   9.091  0.445E+00  0.111E+00  0.111E+00  0.111E+00  0.111E+00
   9.093  0.328E-01  0.820E-02  0.820E-02  0.820E-02  0.820E-02
   9.095  0.376E-03  0.941E-04  0.941E-04  0.941E-04  0.941E-04
   9.097  0.102E-01  0.256E-02  0.256E-02  0.256E-02  0.256E-02
   9.099  0.305E+00  0.763E-01  0.763E-01  0.763E-01  0.763E-01
   9.101  0.138E+01  0.344E+00  0.344E+00  0.344E+00  0.344E+00
   9.103  0.101E+01  0.253E+00  0.253E+00  0.253E+00  0.253E+00
   9.105  0.125E+00  0.314E-01  0.314E-01  0.314E-01  0.314E-01
   9.107  0.250E-02  0.624E-03  0.624E-03  0.624E-03  0.624E-03
   9.109  0.741E-05  0.185E-05  0.185E-05  0.185E-05  0.185E-05
   9.111  0.407E-08  0.102E-08  0.102E-08  0.102E-08  0.102E-08
   9.113  0.292E-05  0.729E-06  0.729E-06  0.729E-06  0.729E-06
   9.115  0.121E-02  0.301E-03  0.301E-03  0.301E-03  0.301E-03
   9.117  0.679E-01  0.170E-01  0.170E-01  0.170E-01  0.170E-01
   9.119  0.556E+00  0.139E+00  0.139E+00  0.139E+00  0.139E+00
   9.121  0.108E+01  0.271E+00  0.271E+00  0.271E+00  0.271E+00
   9.123  0.100E+01  0.251E+00  0.251E+00  0.251E+00  0.251E+00
   9.125  0.211E+00  0.528E-01  0.528E-01  0.528E-01  0.528E-01
   9.127  0.689E-02  0.172E-02  0.172E-02  0.172E-02  0.172E-02
   9.129  0.424E-01  0.106E-01  0.106E-01  0.106E-01  0.106E-01
   9.131  0.498E+00  0.124E+00  0.124E+00  0.124E+00  0.124E+00
   9.133  0.791E+00  0.198E+00  0.198E+00  0.198E+00  0.198E+00
   9.135  0.170E+00  0.425E-01  0.425E-01  0.425E-01  0.425E-01
   9.137  0.495E-02  0.124E-02  0.124E-02  0.124E-02  0.124E-02
   9.139  0.228E-04  0.571E-05  0.571E-05  0.571E-05  0.571E-05
   9.141  0.150E-02  0.374E-03  0.374E-03  0.374E-03  0.374E-03
   9.143  0.901E-01  0.225E-01  0.225E-01  0.225E-01  0.225E-01
   9.145  0.734E+00  0.184E+00  0.184E+00  0.184E+00  0.184E+00
   9.147  0.810E+00  0.202E+00  0.202E+00  0.202E+00  0.202E+00
   9.149  0.121E+00  0.303E-01  0.303E-01  0.303E-01  0.303E-01
   9.151  0.324E-01  0.811E-02  0.811E-02  0.811E-02  0.811E-02
   9.153  0.341E+00  0.852E-01  0.852E-01  0.852E-01  0.852E-01
   9.155  0.588E+00  0.147E+00  0.147E+00  0.147E+00  0.147E+00
   9.157  0.587E+00  0.147E+00  0.147E+00  0.147E+00  0.147E+00
   9.159  0.456E+00  0.114E+00  0.114E+00  0.114E+00  0.114E+00
   9.161  0.582E-01  0.145E-01  0.145E-01  0.145E-01  0.145E-01
   9.163  0.230E-01  0.575E-02  0.575E-02  0.575E-02  0.575E-02
   9.165  0.346E+00  0.866E-01  0.866E-01  0.866E-01  0.866E-01
   9.167  0.740E+00  0.185E+00  0.185E+00  0.185E+00  0.185E+00
   9.169  0.313E+00  0.782E-01  0.782E-01  0.782E-01  0.782E-01
   9.171  0.771E+00  0.193E+00  0.193E+00  0.193E+00  0.193E+00
   9.173  0.802E+00  0.200E+00  0.200E+00  0.200E+00  0.200E+00
   9.175  0.400E+00  0.999E-01  0.999E-01  0.999E-01  0.999E-01
   9.177  0.862E+00  0.215E+00  0.215E+00  0.215E+00  0.215E+00
   9.179  0.572E+00  0.143E+00  0.143E+00  0.143E+00  0.143E+00
   9.181  0.673E+00  0.168E+00  0.168E+00  0.168E+00  0.168E+00
   9.183  0.247E+00  0.617E-01  0.617E-01  0.617E-01  0.617E-01
   9.185  0.126E-01  0.315E-02  0.315E-02  0.315E-02  0.315E-02
   9.187  0.869E-04  0.217E-04  0.217E-04  0.217E-04  0.217E-04
   9.189  0.812E-07  0.203E-07  0.203E-07  0.203E-07  0.203E-07
   9.191  0.464E-09  0.116E-09  0.116E-09  0.116E-09  0.116E-09
   9.193  0.178E-05  0.446E-06  0.446E-06  0.446E-06  0.446E-06
   9.195  0.949E-03  0.237E-03  0.237E-03  0.237E-03  0.237E-03
   9.197  0.683E-01  0.171E-01  0.171E-01  0.171E-01  0.171E-01
   9.199  0.665E+00  0.166E+00  0.166E+00  0.166E+00  0.166E+00
   9.201  0.877E+00  0.219E+00  0.219E+00  0.219E+00  0.219E+00
   9.203  0.173E+00  0.432E-01  0.432E-01  0.432E-01  0.432E-01
   9.205  0.250E+00  0.624E-01  0.624E-01  0.624E-01  0.624E-01
   9.207  0.497E+00  0.124E+00  0.124E+00  0.124E+00  0.124E+00
   9.209  0.136E+00  0.340E-01  0.340E-01  0.340E-01  0.340E-01
   9.211  0.504E-02  0.126E-02  0.126E-02  0.126E-02  0.126E-02
   9.213  0.252E-04  0.631E-05  0.631E-05  0.631E-05  0.631E-05
   9.215  0.795E-07  0.199E-07  0.199E-07  0.199E-07  0.199E-07
   9.217  0.760E-04  0.190E-04  0.190E-04  0.190E-04  0.190E-04
   9.219  0.125E-01  0.313E-02  0.313E-02  0.313E-02  0.313E-02
   9.221  0.280E+00  0.699E-01  0.699E-01  0.699E-01  0.699E-01
   9.223  0.845E+00  0.211E+00  0.211E+00  0.211E+00  0.211E+00
   9.225  0.345E+00  0.864E-01  0.864E-01  0.864E-01  0.864E-01
   9.227  0.470E-01  0.118E-01  0.118E-01  0.118E-01  0.118E-01
   9.229  0.453E+00  0.113E+00  0.113E+00  0.113E+00  0.113E+00
   9.231  0.992E+00  0.248E+00  0.248E+00  0.248E+00  0.248E+00
   9.233  0.294E+00  0.735E-01  0.735E-01  0.735E-01  0.735E-01
   9.235  0.118E-01  0.295E-02  0.295E-02  0.295E-02  0.295E-02
   9.237  0.168E-03  0.420E-04  0.420E-04  0.420E-04  0.420E-04
   9.239  0.149E-01  0.372E-02  0.372E-02  0.372E-02  0.372E-02
   9.241  0.312E+00  0.780E-01  0.780E-01  0.780E-01  0.780E-01
   9.243  0.104E+01  0.259E+00  0.259E+00  0.259E+00  0.259E+00
   9.245  0.586E+00  0.146E+00  0.146E+00  0.146E+00  0.146E+00
   9.247  0.556E-01  0.139E-01  0.139E-01  0.139E-01  0.139E-01
   9.249  0.822E-03  0.205E-03  0.205E-03  0.205E-03  0.205E-03
   9.251  0.269E-05  0.672E-06  0.672E-06  0.672E-06  0.672E-06
   9.253  0.484E-03  0.121E-03  0.121E-03  0.121E-03  0.121E-03
   9.255  0.359E-01  0.899E-02  0.899E-02  0.899E-02  0.899E-02
   9.257  0.431E+00  0.108E+00  0.108E+00  0.108E+00  0.108E+00
   9.259  0.102E+01  0.256E+00  0.256E+00  0.256E+00  0.256E+00
   9.261  0.698E+00  0.174E+00  0.174E+00  0.174E+00  0.174E+00
   9.263  0.982E+00  0.246E+00  0.246E+00  0.246E+00  0.246E+00
   9.265  0.581E+00  0.145E+00  0.145E+00  0.145E+00  0.145E+00
   9.267  0.100E+00  0.250E-01  0.250E-01  0.250E-01  0.250E-01
   9.269  0.538E+00  0.135E+00  0.135E+00  0.135E+00  0.135E+00
   9.271  0.755E+00  0.189E+00  0.189E+00  0.189E+00  0.189E+00
   9.273  0.143E+00  0.359E-01  0.359E-01  0.359E-01  0.359E-01
   9.275  0.369E-02  0.922E-03  0.922E-03  0.922E-03  0.922E-03
   9.277  0.128E-04  0.321E-05  0.321E-05  0.321E-05  0.321E-05
   9.279  0.605E-08  0.151E-08  0.151E-08  0.151E-08  0.151E-08
   9.281  0.385E-12  0.964E-13  0.964E-13  0.964E-13  0.964E-13
   9.283  0.333E-17  0.831E-18  0.831E-18  0.831E-18  0.831E-18
   9.285  0.000E+00  0.000E+00  0.000E+00  0.000E+00  0.000E+00
   9.287  0.702E-14  0.176E-14  0.176E-14  0.176E-14  0.176E-14
   9.289  0.235E-09  0.588E-10  0.588E-10  0.588E-10  0.588E-10
   9.291  0.107E-05  0.267E-06  0.267E-06  0.267E-06  0.267E-06
   9.293  0.654E-03  0.164E-03  0.164E-03  0.164E-03  0.164E-03
   9.295  0.544E-01  0.136E-01  0.136E-01  0.136E-01  0.136E-01
   9.297  0.611E+00  0.153E+00  0.153E+00  0.153E+00  0.153E+00
   9.299  0.934E+00  0.233E+00  0.233E+00  0.233E+00  0.233E+00
   9.301  0.326E+00  0.815E-01  0.815E-01  0.815E-01  0.815E-01
   9.303  0.540E+00  0.135E+00  0.135E+00  0.135E+00  0.135E+00
   9.305  0.336E+00  0.839E-01  0.839E-01  0.839E-01  0.839E-01
   9.307  0.329E+00  0.822E-01  0.822E-01  0.822E-01  0.822E-01
   9.309  0.258E+00  0.645E-01  0.645E-01  0.645E-01  0.645E-01
   9.311  0.292E-01  0.730E-02  0.730E-02  0.730E-02  0.730E-02
   9.313  0.986E-03  0.246E-03  0.246E-03  0.246E-03  0.246E-03
   9.315  0.448E-01  0.112E-01  0.112E-01  0.112E-01  0.112E-01
   9.317  0.513E+00  0.128E+00  0.128E+00  0.128E+00  0.128E+00
   9.319  0.937E+00  0.234E+00  0.234E+00  0.234E+00  0.234E+00
   9.321  0.540E+00  0.135E+00  0.135E+00  0.135E+00  0.135E+00
   9.323  0.120E+00  0.300E-01  0.300E-01  0.300E-01  0.300E-01
   9.325  0.475E-02  0.119E-02  0.119E-02  0.119E-02  0.119E-02
   9.327  0.263E-04  0.657E-05  0.657E-05  0.657E-05  0.657E-05
   9.329  0.310E-04  0.774E-05  0.774E-05  0.774E-05  0.774E-05
   9.331  0.720E-02  0.180E-02  0.180E-02  0.180E-02  0.180E-02
   9.333  0.227E+00  0.566E-01  0.566E-01  0.566E-01  0.566E-01
   9.335  0.965E+00  0.241E+00  0.241E+00  0.241E+00  0.241E+00
   9.337  0.556E+00  0.139E+00  0.139E+00  0.139E+00  0.139E+00
   9.339  0.434E-01  0.109E-01  0.109E-01  0.109E-01  0.109E-01
   9.341  0.463E-03  0.116E-03  0.116E-03  0.116E-03  0.116E-03
   9.343  0.153E-02  0.382E-03  0.382E-03  0.382E-03  0.382E-03
   9.345  0.742E-01  0.185E-01  0.185E-01  0.185E-01  0.185E-01
   9.347  0.487E+00  0.122E+00  0.122E+00  0.122E+00  0.122E+00
   9.349  0.434E+00  0.109E+00  0.109E+00  0.109E+00  0.109E+00
   9.351  0.883E-01  0.221E-01  0.221E-01  0.221E-01  0.221E-01
   9.353  0.232E+00  0.579E-01  0.579E-01  0.579E-01  0.579E-01
   9.355  0.223E+00  0.557E-01  0.557E-01  0.557E-01  0.557E-01
   9.357  0.288E+00  0.719E-01  0.719E-01  0.719E-01  0.719E-01
   9.359  0.400E+00  0.999E-01  0.999E-01  0.999E-01  0.999E-01
   9.361  0.819E-01  0.205E-01  0.205E-01  0.205E-01  0.205E-01
   9.363  0.294E-01  0.735E-02  0.735E-02  0.735E-02  0.735E-02
   9.365  0.399E+00  0.998E-01  0.998E-01  0.998E-01  0.998E-01
   9.367  0.794E+00  0.199E+00  0.199E+00  0.199E+00  0.199E+00
   9.369  0.214E+00  0.536E-01  0.536E-01  0.536E-01  0.536E-01
   9.371  0.512E-01  0.128E-01  0.128E-01  0.128E-01  0.128E-01
   9.373  0.558E+00  0.139E+00  0.139E+00  0.139E+00  0.139E+00
   9.375  0.969E+00  0.242E+00  0.242E+00  0.242E+00  0.242E+00
   9.377  0.228E+00  0.571E-01  0.571E-01  0.571E-01  0.571E-01
   9.379  0.231E-01  0.577E-02  0.577E-02  0.577E-02  0.577E-02
   9.381  0.158E+00  0.396E-01  0.396E-01  0.396E-01  0.396E-01
   9.383  0.214E+00  0.536E-01  0.536E-01  0.536E-01  0.536E-01
   9.385  0.393E-01  0.983E-02  0.983E-02  0.983E-02  0.983E-02
   9.387  0.976E-03  0.244E-03  0.244E-03  0.244E-03  0.244E-03
   9.389  0.233E-03  0.582E-04  0.582E-04  0.582E-04  0.582E-04
   9.391  0.148E-01  0.371E-02  0.371E-02  0.371E-02  0.371E-02
   9.393  0.130E+00  0.324E-01  0.324E-01  0.324E-01  0.324E-01
   9.395  0.153E+00  0.383E-01  0.383E-01  0.383E-01  0.383E-01
   9.397  0.246E-01  0.615E-02  0.615E-02  0.615E-02  0.615E-02
   9.399  0.750E-02  0.188E-02  0.188E-02  0.188E-02  0.188E-02
   9.401  0.120E+00  0.300E-01  0.300E-01  0.300E-01  0.300E-01
   9.403  0.280E+00  0.700E-01  0.700E-01  0.700E-01  0.700E-01
   9.405  0.883E-01  0.221E-01  0.221E-01  0.221E-01  0.221E-01
   9.407  0.378E-02  0.944E-03  0.944E-03  0.944E-03  0.944E-03
   9.409  0.263E-02  0.657E-03  0.657E-03  0.657E-03  0.657E-03
   9.411  0.117E+00  0.293E-01  0.293E-01  0.293E-01  0.293E-01
   9.413  0.838E+00  0.210E+00  0.210E+00  0.210E+00  0.210E+00
   9.415  0.145E+01  0.362E+00  0.362E+00  0.362E+00  0.362E+00
   9.417  0.761E+00  0.190E+00  0.190E+00  0.190E+00  0.190E+00
   9.419  0.384E+00  0.959E-01  0.959E-01  0.959E-01  0.959E-01
   9.421  0.325E+00  0.813E-01  0.813E-01  0.813E-01  0.813E-01
   9.423  0.129E+00  0.322E-01  0.322E-01  0.322E-01  0.322E-01
   9.425  0.163E+00  0.408E-01  0.408E-01  0.408E-01  0.408E-01
   9.427  0.918E-01  0.230E-01  0.230E-01  0.230E-01  0.230E-01
   9.429  0.145E-01  0.363E-02  0.363E-02  0.363E-02  0.363E-02
   9.431  0.497E-01  0.124E-01  0.124E-01  0.124E-01  0.124E-01
   9.433  0.133E+00  0.333E-01  0.333E-01  0.333E-01  0.333E-01
   9.435  0.484E-01  0.121E-01  0.121E-01  0.121E-01  0.121E-01
   9.437  0.239E-02  0.597E-03  0.597E-03  0.597E-03  0.597E-03
   9.439  0.159E-04  0.398E-05  0.398E-05  0.398E-05  0.398E-05
   9.441  0.763E-05  0.191E-05  0.191E-05  0.191E-05  0.191E-05
   9.443  0.107E-02  0.267E-03  0.267E-03  0.267E-03  0.267E-03
   9.445  0.208E-01  0.520E-02  0.520E-02  0.520E-02  0.520E-02
   9.447  0.634E-01  0.158E-01  0.158E-01  0.158E-01  0.158E-01
   9.449  0.522E-01  0.131E-01  0.131E-01  0.131E-01  0.131E-01
   9.451  0.158E-01  0.396E-02  0.396E-02  0.396E-02  0.396E-02
   9.453  0.313E-01  0.781E-02  0.781E-02  0.781E-02  0.781E-02
   9.455  0.415E+00  0.104E+00  0.104E+00  0.104E+00  0.104E+00
   9.457  0.119E+01  0.298E+00  0.298E+00  0.298E+00  0.298E+00
   9.459  0.136E+01  0.340E+00  0.340E+00  0.340E+00  0.340E+00
   9.461  0.389E+00  0.974E-01  0.974E-01  0.974E-01  0.974E-01
   9.463  0.307E-01  0.766E-02  0.766E-02  0.766E-02  0.766E-02
   9.465  0.531E-01  0.133E-01  0.133E-01  0.133E-01  0.133E-01
   9.467  0.428E-01  0.107E-01  0.107E-01  0.107E-01  0.107E-01
   9.469  0.302E-01  0.756E-02  0.756E-02  0.756E-02  0.756E-02
   9.471  0.731E-02  0.183E-02  0.183E-02  0.183E-02  0.183E-02
   9.473  0.352E-03  0.881E-04  0.881E-04  0.881E-04  0.881E-04
   9.475  0.409E-04  0.102E-04  0.102E-04  0.102E-04  0.102E-04
   9.477  0.462E-04  0.116E-04  0.116E-04  0.116E-04  0.116E-04
   9.479  0.368E-02  0.920E-03  0.920E-03  0.920E-03  0.920E-03
   9.481  0.416E-01  0.104E-01  0.104E-01  0.104E-01  0.104E-01
   9.483  0.645E-01  0.161E-01  0.161E-01  0.161E-01  0.161E-01
   9.485  0.658E-01  0.165E-01  0.165E-01  0.165E-01  0.165E-01
   9.487  0.397E+00  0.993E-01  0.993E-01  0.993E-01  0.993E-01
   9.489  0.405E+00  0.101E+00  0.101E+00  0.101E+00  0.101E+00
   9.491  0.584E-01  0.146E-01  0.146E-01  0.146E-01  0.146E-01
   9.493  0.524E-01  0.131E-01  0.131E-01  0.131E-01  0.131E-01
   9.495  0.143E+00  0.358E-01  0.358E-01  0.358E-01  0.358E-01
   9.497  0.847E-01  0.212E-01  0.212E-01  0.212E-01  0.212E-01
   9.499  0.234E+00  0.584E-01  0.584E-01  0.584E-01  0.584E-01
   9.501  0.388E+00  0.970E-01  0.970E-01  0.970E-01  0.970E-01
   9.503  0.938E+00  0.234E+00  0.234E+00  0.234E+00  0.234E+00
   9.505  0.681E+00  0.170E+00  0.170E+00  0.170E+00  0.170E+00
   9.507  0.695E-01  0.174E-01  0.174E-01  0.174E-01  0.174E-01
   9.509  0.106E-02  0.265E-03  0.265E-03  0.265E-03  0.265E-03
   9.511  0.571E-05  0.143E-05  0.143E-05  0.143E-05  0.143E-05
   9.513  0.191E-07  0.477E-08  0.477E-08  0.477E-08  0.477E-08
   9.515  0.119E-10  0.298E-11  0.298E-11  0.298E-11  0.298E-11
   9.517  0.103E-14  0.257E-15  0.257E-15  0.257E-15  0.257E-15
   9.519  0.819E-15  0.205E-15  0.205E-15  0.205E-15  0.205E-15
   9.521  0.116E-10  0.289E-11  0.289E-11  0.289E-11  0.289E-11
   9.523  0.221E-07  0.553E-08  0.553E-08  0.553E-08  0.553E-08
   9.525  0.573E-05  0.143E-05  0.143E-05  0.143E-05  0.143E-05
   9.527  0.201E-03  0.501E-04  0.501E-04  0.501E-04  0.501E-04
   9.529  0.950E-03  0.238E-03  0.238E-03  0.238E-03  0.238E-03
   9.531  0.609E-03  0.152E-03  0.152E-03  0.152E-03  0.152E-03
   9.533  0.529E-04  0.132E-04  0.132E-04  0.132E-04  0.132E-04
   9.535  0.621E-06  0.155E-06  0.155E-06  0.155E-06  0.155E-06
   9.537  0.988E-09  0.247E-09  0.247E-09  0.247E-09  0.247E-09
   9.539  0.222E-12  0.556E-13  0.556E-13  0.556E-13  0.556E-13
   9.541  0.313E-09  0.783E-10  0.783E-10  0.783E-10  0.783E-10
   9.543  0.134E-05  0.335E-06  0.335E-06  0.335E-06  0.335E-06
   9.545  0.778E-03  0.194E-03  0.194E-03  0.194E-03  0.194E-03
   9.547  0.610E-01  0.153E-01  0.153E-01  0.153E-01  0.153E-01
   9.549  0.648E+00  0.162E+00  0.162E+00  0.162E+00  0.162E+00
   9.551  0.931E+00  0.233E+00  0.233E+00  0.233E+00  0.233E+00
   9.553  0.181E+00  0.453E-01  0.453E-01  0.453E-01  0.453E-01
   9.555  0.654E-02  0.163E-02  0.163E-02  0.163E-02  0.163E-02
   9.557  0.269E-02  0.673E-03  0.673E-03  0.673E-03  0.673E-03
   9.559  0.548E-03  0.137E-03  0.137E-03  0.137E-03  0.137E-03
   9.561  0.152E-04  0.379E-05  0.379E-05  0.379E-05  0.379E-05
   9.563  0.569E-07  0.142E-07  0.142E-07  0.142E-07  0.142E-07
   9.565  0.289E-10  0.722E-11  0.722E-11  0.722E-11  0.722E-11
   9.567  0.198E-14  0.496E-15  0.496E-15  0.496E-15  0.496E-15
   9.569  0.184E-19  0.460E-20  0.460E-20  0.460E-20  0.460E-20
   9.571  0.000E+00  0.000E+00  0.000E+00  0.000E+00  0.000E+00
   9.573  0.000E+00  0.000E+00  0.000E+00  0.000E+00  0.000E+00
   9.575  0.165E-16  0.414E-17  0.414E-17  0.414E-17  0.414E-17
   9.577  0.780E-12  0.195E-12  0.195E-12  0.195E-12  0.195E-12
   9.579  0.497E-08  0.124E-08  0.124E-08  0.124E-08  0.124E-08
   9.581  0.429E-05  0.107E-05  0.107E-05  0.107E-05  0.107E-05
   9.583  0.501E-03  0.125E-03  0.125E-03  0.125E-03  0.125E-03
   9.585  0.793E-02  0.198E-02  0.198E-02  0.198E-02  0.198E-02
   9.587  0.170E-01  0.424E-02  0.424E-02  0.424E-02  0.424E-02
   9.589  0.491E-02  0.123E-02  0.123E-02  0.123E-02  0.123E-02
   9.591  0.322E-03  0.805E-04  0.805E-04  0.805E-04  0.805E-04
   9.593  0.185E-01  0.463E-02  0.463E-02  0.463E-02  0.463E-02
   9.595  0.358E+00  0.895E-01  0.895E-01  0.895E-01  0.895E-01
   9.597  0.938E+00  0.234E+00  0.234E+00  0.234E+00  0.234E+00
   9.599  0.332E+00  0.831E-01  0.831E-01  0.831E-01  0.831E-01
   9.601  0.159E-01  0.398E-02  0.398E-02  0.398E-02  0.398E-02
   9.603  0.103E-03  0.259E-04  0.259E-04  0.259E-04  0.259E-04
   9.605  0.908E-07  0.227E-07  0.227E-07  0.227E-07  0.227E-07
   9.607  0.108E-10  0.270E-11  0.270E-11  0.270E-11  0.270E-11
   9.609  0.174E-15  0.434E-16  0.434E-16  0.434E-16  0.434E-16
   9.611  0.000E+00  0.000E+00  0.000E+00  0.000E+00  0.000E+00
   9.613  0.657E-18  0.164E-18  0.164E-18  0.164E-18  0.164E-18
   9.615  0.708E-13  0.177E-13  0.177E-13  0.177E-13  0.177E-13
   9.617  0.103E-08  0.258E-09  0.258E-09  0.258E-09  0.258E-09
   9.619  0.204E-05  0.510E-06  0.510E-06  0.510E-06  0.510E-06
   9.621  0.545E-03  0.136E-03  0.136E-03  0.136E-03  0.136E-03
   9.623  0.197E-01  0.493E-02  0.493E-02  0.493E-02  0.493E-02
   9.625  0.965E-01  0.241E-01  0.241E-01  0.241E-01  0.241E-01
   9.627  0.639E-01  0.160E-01  0.160E-01  0.160E-01  0.160E-01
   9.629  0.573E-02  0.143E-02  0.143E-02  0.143E-02  0.143E-02
   9.631  0.696E-04  0.174E-04  0.174E-04  0.174E-04  0.174E-04
   9.633  0.114E-06  0.286E-07  0.286E-07  0.286E-07  0.286E-07
   9.635  0.254E-10  0.635E-11  0.635E-11  0.635E-11  0.635E-11
   9.637  0.763E-15  0.191E-15  0.191E-15  0.191E-15  0.191E-15
   9.639  0.164E-16  0.410E-17  0.410E-17  0.410E-17  0.410E-17
   9.641  0.152E-11  0.381E-12  0.381E-12  0.381E-12  0.381E-12
   9.643  0.192E-07  0.479E-08  0.479E-08  0.479E-08  0.479E-08
   9.645  0.326E-04  0.816E-05  0.816E-05  0.816E-05  0.816E-05
   9.647  0.757E-02  0.189E-02  0.189E-02  0.189E-02  0.189E-02
   9.649  0.242E+00  0.606E-01  0.606E-01  0.606E-01  0.606E-01
   9.651  0.114E+01  0.286E+00  0.286E+00  0.286E+00  0.286E+00
   9.653  0.982E+00  0.246E+00  0.246E+00  0.246E+00  0.246E+00
   9.655  0.342E+00  0.855E-01  0.855E-01  0.855E-01  0.855E-01
   9.657  0.861E-01  0.215E-01  0.215E-01  0.215E-01  0.215E-01
   9.659  0.547E-02  0.137E-02  0.137E-02  0.137E-02  0.137E-02
   9.661  0.505E-02  0.126E-02  0.126E-02  0.126E-02  0.126E-02
   9.663  0.536E-02  0.134E-02  0.134E-02  0.134E-02  0.134E-02
   9.665  0.777E-03  0.194E-03  0.194E-03  0.194E-03  0.194E-03
   9.667  0.163E-04  0.407E-05  0.407E-05  0.407E-05  0.407E-05
   9.669  0.336E-03  0.841E-04  0.841E-04  0.841E-04  0.841E-04
   9.671  0.152E-01  0.380E-02  0.380E-02  0.380E-02  0.380E-02
   9.673  0.133E+00  0.332E-01  0.332E-01  0.332E-01  0.332E-01
   9.675  0.494E+00  0.123E+00  0.123E+00  0.123E+00  0.123E+00
   9.677  0.518E+00  0.129E+00  0.129E+00  0.129E+00  0.129E+00
   9.679  0.828E-01  0.207E-01  0.207E-01  0.207E-01  0.207E-01
   9.681  0.181E-02  0.453E-03  0.453E-03  0.453E-03  0.453E-03
   9.683  0.538E-05  0.135E-05  0.135E-05  0.135E-05  0.135E-05
   9.685  0.216E-08  0.540E-09  0.540E-09  0.540E-09  0.540E-09
   9.687  0.117E-12  0.294E-13  0.294E-13  0.294E-13  0.294E-13
   9.689  0.495E-17  0.124E-17  0.124E-17  0.124E-17  0.124E-17
   9.691  0.299E-12  0.748E-13  0.748E-13  0.748E-13  0.748E-13
   9.693  0.298E-08  0.744E-09  0.744E-09  0.744E-09  0.744E-09
   9.695  0.409E-05  0.102E-05  0.102E-05  0.102E-05  0.102E-05
   9.697  0.849E-03  0.212E-03  0.212E-03  0.212E-03  0.212E-03
   9.699  0.369E-01  0.922E-02  0.922E-02  0.922E-02  0.922E-02
   9.701  0.446E+00  0.112E+00  0.112E+00  0.112E+00  0.112E+00
   9.703  0.108E+01  0.271E+00  0.271E+00  0.271E+00  0.271E+00
   9.705  0.393E+00  0.983E-01  0.983E-01  0.983E-01  0.983E-01
   9.707  0.197E-01  0.493E-02  0.493E-02  0.493E-02  0.493E-02
   9.709  0.136E-03  0.341E-04  0.341E-04  0.341E-04  0.341E-04
   9.711  0.133E-06  0.332E-07  0.332E-07  0.332E-07  0.332E-07
   9.713  0.194E-10  0.485E-11  0.485E-11  0.485E-11  0.485E-11
   9.715  0.629E-11  0.157E-11  0.157E-11  0.157E-11  0.157E-11
   9.717  0.567E-07  0.142E-07  0.142E-07  0.142E-07  0.142E-07
   9.719  0.693E-04  0.173E-04  0.173E-04  0.173E-04  0.173E-04
   9.721  0.115E-01  0.286E-02  0.286E-02  0.286E-02  0.286E-02
   9.723  0.256E+00  0.641E-01  0.641E-01  0.641E-01  0.641E-01
   9.725  0.776E+00  0.194E+00  0.194E+00  0.194E+00  0.194E+00
   9.727  0.318E+00  0.795E-01  0.795E-01  0.795E-01  0.795E-01
   9.729  0.177E-01  0.442E-02  0.442E-02  0.442E-02  0.442E-02
   9.731  0.322E-02  0.804E-03  0.804E-03  0.804E-03  0.804E-03
   9.733  0.278E-01  0.694E-02  0.694E-02  0.694E-02  0.694E-02
   9.735  0.338E-01  0.845E-02  0.845E-02  0.845E-02  0.845E-02
   9.737  0.557E-02  0.139E-02  0.139E-02  0.139E-02  0.139E-02
   9.739  0.124E-03  0.311E-04  0.311E-04  0.311E-04  0.311E-04
   9.741  0.375E-06  0.939E-07  0.939E-07  0.939E-07  0.939E-07
   9.743  0.130E-07  0.324E-08  0.324E-08  0.324E-08  0.324E-08
   9.745  0.391E-05  0.978E-06  0.978E-06  0.978E-06  0.978E-06
   9.747  0.162E-03  0.404E-04  0.404E-04  0.404E-04  0.404E-04
   9.749  0.905E-03  0.226E-03  0.226E-03  0.226E-03  0.226E-03
   9.751  0.106E-02  0.266E-03  0.266E-03  0.266E-03  0.266E-03
   9.753  0.391E-01  0.977E-02  0.977E-02  0.977E-02  0.977E-02
   9.755  0.547E+00  0.137E+00  0.137E+00  0.137E+00  0.137E+00
   9.757  0.104E+01  0.259E+00  0.259E+00  0.259E+00  0.259E+00
   9.759  0.266E+00  0.665E-01  0.665E-01  0.665E-01  0.665E-01
   9.761  0.924E-02  0.231E-02  0.231E-02  0.231E-02  0.231E-02
   9.763  0.434E-04  0.109E-04  0.109E-04  0.109E-04  0.109E-04
   9.765  0.131E-05  0.326E-06  0.326E-06  0.326E-06  0.326E-06
   9.767  0.264E-03  0.660E-04  0.660E-04  0.660E-04  0.660E-04
   9.769  0.738E-02  0.184E-02  0.184E-02  0.184E-02  0.184E-02
   9.771  0.279E-01  0.698E-02  0.698E-02  0.698E-02  0.698E-02
   9.773  0.143E-01  0.358E-02  0.358E-02  0.358E-02  0.358E-02
   9.775  0.584E-02  0.146E-02  0.146E-02  0.146E-02  0.146E-02
   9.777  0.143E+00  0.358E-01  0.358E-01  0.358E-01  0.358E-01
   9.779  0.574E+00  0.143E+00  0.143E+00  0.143E+00  0.143E+00
   9.781  0.311E+00  0.777E-01  0.777E-01  0.777E-01  0.777E-01
   9.783  0.228E-01  0.570E-02  0.570E-02  0.570E-02  0.570E-02
   9.785  0.226E-03  0.565E-04  0.565E-04  0.565E-04  0.565E-04
   9.787  0.115E-04  0.287E-05  0.287E-05  0.287E-05  0.287E-05
   9.789  0.323E-02  0.807E-03  0.807E-03  0.807E-03  0.807E-03
   9.791  0.141E+00  0.352E-01  0.352E-01  0.352E-01  0.352E-01
   9.793  0.961E+00  0.240E+00  0.240E+00  0.240E+00  0.240E+00
   9.795  0.102E+01  0.255E+00  0.255E+00  0.255E+00  0.255E+00
   9.797  0.163E+00  0.408E-01  0.408E-01  0.408E-01  0.408E-01
   9.799  0.433E-02  0.108E-02  0.108E-02  0.108E-02  0.108E-02
   9.801  0.269E-03  0.672E-04  0.672E-04  0.672E-04  0.672E-04
   9.803  0.138E-01  0.344E-02  0.344E-02  0.344E-02  0.344E-02
   9.805  0.291E+00  0.728E-01  0.728E-01  0.728E-01  0.728E-01
   9.807  0.838E+00  0.209E+00  0.209E+00  0.209E+00  0.209E+00
   9.809  0.467E+00  0.117E+00  0.117E+00  0.117E+00  0.117E+00
   9.811  0.940E+00  0.235E+00  0.235E+00  0.235E+00  0.235E+00
   9.813  0.803E+00  0.201E+00  0.201E+00  0.201E+00  0.201E+00
   9.815  0.945E-01  0.236E-01  0.236E-01  0.236E-01  0.236E-01
   9.817  0.151E-02  0.376E-03  0.376E-03  0.376E-03  0.376E-03
   9.819  0.106E-03  0.264E-04  0.264E-04  0.264E-04  0.264E-04
   9.821  0.112E-01  0.281E-02  0.281E-02  0.281E-02  0.281E-02
   9.823  0.167E+00  0.418E-01  0.418E-01  0.418E-01  0.418E-01
   9.825  0.337E+00  0.842E-01  0.842E-01  0.842E-01  0.842E-01
   9.827  0.110E+00  0.275E-01  0.275E-01  0.275E-01  0.275E-01
   9.829  0.208E+00  0.521E-01  0.521E-01  0.521E-01  0.521E-01
   9.831  0.592E+00  0.148E+00  0.148E+00  0.148E+00  0.148E+00
   9.833  0.766E+00  0.192E+00  0.192E+00  0.192E+00  0.192E+00
   9.835  0.208E+00  0.519E-01  0.519E-01  0.519E-01  0.519E-01
   9.837  0.808E-02  0.202E-02  0.202E-02  0.202E-02  0.202E-02
   9.839  0.430E-04  0.108E-04  0.108E-04  0.108E-04  0.108E-04
   9.841  0.312E-07  0.780E-08  0.780E-08  0.780E-08  0.780E-08
   9.843  0.593E-09  0.148E-09  0.148E-09  0.148E-09  0.148E-09
   9.845  0.144E-05  0.361E-06  0.361E-06  0.361E-06  0.361E-06
   9.847  0.493E-03  0.123E-03  0.123E-03  0.123E-03  0.123E-03
   9.849  0.231E-01  0.578E-02  0.578E-02  0.578E-02  0.578E-02
   9.851  0.148E+00  0.370E-01  0.370E-01  0.370E-01  0.370E-01
   9.853  0.132E+00  0.329E-01  0.329E-01  0.329E-01  0.329E-01
   9.855  0.311E-01  0.778E-02  0.778E-02  0.778E-02  0.778E-02
   9.857  0.103E-01  0.257E-02  0.257E-02  0.257E-02  0.257E-02
   9.859  0.286E-01  0.715E-02  0.715E-02  0.715E-02  0.715E-02
   9.861  0.364E+00  0.910E-01  0.910E-01  0.910E-01  0.910E-01
   9.863  0.646E+00  0.162E+00  0.162E+00  0.162E+00  0.162E+00
   9.865  0.218E+00  0.545E-01  0.545E-01  0.545E-01  0.545E-01
   9.867  0.694E+00  0.173E+00  0.173E+00  0.173E+00  0.173E+00
   9.869  0.102E+01  0.255E+00  0.255E+00  0.255E+00  0.255E+00
   9.871  0.205E+00  0.512E-01  0.512E-01  0.512E-01  0.512E-01
   9.873  0.199E-01  0.497E-02  0.497E-02  0.497E-02  0.497E-02
   9.875  0.144E+00  0.359E-01  0.359E-01  0.359E-01  0.359E-01
   9.877  0.352E+00  0.880E-01  0.880E-01  0.880E-01  0.880E-01
   9.879  0.131E+01  0.328E+00  0.328E+00  0.328E+00  0.328E+00
   9.881  0.182E+01  0.455E+00  0.455E+00  0.455E+00  0.455E+00
   9.883  0.493E+00  0.123E+00  0.123E+00  0.123E+00  0.123E+00
   9.885  0.226E-01  0.566E-02  0.566E-02  0.566E-02  0.566E-02
   9.887  0.155E-03  0.387E-04  0.387E-04  0.387E-04  0.387E-04
   9.889  0.149E-06  0.371E-07  0.371E-07  0.371E-07  0.371E-07
   9.891  0.195E-10  0.488E-11  0.488E-11  0.488E-11  0.488E-11
   9.893  0.467E-10  0.117E-10  0.117E-10  0.117E-10  0.117E-10
   9.895  0.118E-06  0.294E-07  0.294E-07  0.294E-07  0.294E-07
   9.897  0.402E-04  0.100E-04  0.100E-04  0.100E-04  0.100E-04
   9.899  0.186E-02  0.464E-03  0.464E-03  0.464E-03  0.464E-03
   9.901  0.116E-01  0.290E-02  0.290E-02  0.290E-02  0.290E-02
   9.903  0.985E-02  0.246E-02  0.246E-02  0.246E-02  0.246E-02
   9.905  0.132E-02  0.329E-03  0.329E-03  0.329E-03  0.329E-03
   9.907  0.219E-03  0.547E-04  0.547E-04  0.547E-04  0.547E-04
   9.909  0.136E-02  0.340E-03  0.340E-03  0.340E-03  0.340E-03
   9.911  0.320E-01  0.801E-02  0.801E-02  0.801E-02  0.801E-02
   9.913  0.110E+00  0.275E-01  0.275E-01  0.275E-01  0.275E-01
   9.915  0.239E+00  0.598E-01  0.598E-01  0.598E-01  0.598E-01
   9.917  0.834E+00  0.209E+00  0.209E+00  0.209E+00  0.209E+00
   9.919  0.484E+00  0.121E+00  0.121E+00  0.121E+00  0.121E+00
   9.921  0.452E-01  0.113E-01  0.113E-01  0.113E-01  0.113E-01
   9.923  0.229E+00  0.573E-01  0.573E-01  0.573E-01  0.573E-01
   9.925  0.116E+01  0.290E+00  0.290E+00  0.290E+00  0.290E+00
   9.927  0.874E+00  0.218E+00  0.218E+00  0.218E+00  0.218E+00
   9.929  0.933E-01  0.233E-01  0.233E-01  0.233E-01  0.233E-01
   9.931  0.138E-02  0.345E-03  0.345E-03  0.345E-03  0.345E-03
   9.933  0.279E-05  0.696E-06  0.696E-06  0.696E-06  0.696E-06
   9.935  0.764E-09  0.191E-09  0.191E-09  0.191E-09  0.191E-09
   9.937  0.284E-13  0.711E-14  0.711E-14  0.711E-14  0.711E-14
   9.939  0.156E-16  0.391E-17  0.391E-17  0.391E-17  0.391E-17
   9.941  0.694E-12  0.174E-12  0.174E-12  0.174E-12  0.174E-12
   9.943  0.419E-08  0.105E-08  0.105E-08  0.105E-08  0.105E-08
   9.945  0.351E-05  0.878E-06  0.878E-06  0.878E-06  0.878E-06
   9.947  0.446E-03  0.112E-03  0.112E-03  0.112E-03  0.112E-03
   9.949  0.111E-01  0.278E-02  0.278E-02  0.278E-02  0.278E-02
   9.951  0.669E-01  0.167E-01  0.167E-01  0.167E-01  0.167E-01
   9.953  0.781E-01  0.195E-01  0.195E-01  0.195E-01  0.195E-01
   9.955  0.138E-01  0.345E-02  0.345E-02  0.345E-02  0.345E-02
   9.957  0.338E-03  0.845E-04  0.845E-04  0.845E-04  0.845E-04
   9.959  0.181E-05  0.452E-06  0.452E-06  0.452E-06  0.452E-06
   9.961  0.275E-04  0.687E-05  0.687E-05  0.687E-05  0.687E-05
   9.963  0.150E-03  0.375E-04  0.375E-04  0.375E-04  0.375E-04
   9.965  0.111E-03  0.277E-04  0.277E-04  0.277E-04  0.277E-04
   9.967  0.158E-04  0.395E-05  0.395E-05  0.395E-05  0.395E-05
   9.969  0.105E-02  0.262E-03  0.262E-03  0.262E-03  0.262E-03
   9.971  0.315E-01  0.788E-02  0.788E-02  0.788E-02  0.788E-02
   9.973  0.128E+00  0.321E-01  0.321E-01  0.321E-01  0.321E-01
   9.975  0.736E-01  0.184E-01  0.184E-01  0.184E-01  0.184E-01
   9.977  0.157E+00  0.392E-01  0.392E-01  0.392E-01  0.392E-01
   9.979  0.120E+01  0.299E+00  0.299E+00  0.299E+00  0.299E+00
   9.981  0.239E+01  0.598E+00  0.598E+00  0.598E+00  0.598E+00
   9.983  0.207E+01  0.518E+00  0.518E+00  0.518E+00  0.518E+00
   9.985  0.512E+00  0.128E+00  0.128E+00  0.128E+00  0.128E+00
   9.987  0.222E-01  0.554E-02  0.554E-02  0.554E-02  0.554E-02
   9.989  0.312E-03  0.779E-04  0.779E-04  0.779E-04  0.779E-04
   9.991  0.238E-01  0.596E-02  0.596E-02  0.596E-02  0.596E-02
   9.993  0.450E+00  0.113E+00  0.113E+00  0.113E+00  0.113E+00
   9.995  0.117E+01  0.293E+00  0.293E+00  0.293E+00  0.293E+00
   9.997  0.438E+00  0.109E+00  0.109E+00  0.109E+00  0.109E+00
   9.999  0.263E-01  0.657E-02  0.657E-02  0.657E-02  0.657E-02
  10.001  0.784E-02  0.196E-02  0.196E-02  0.196E-02  0.196E-02
  10.003  0.699E-02  0.175E-02  0.175E-02  0.175E-02  0.175E-02
  10.005  0.870E-03  0.217E-03  0.217E-03  0.217E-03  0.217E-03
  10.007  0.147E-04  0.366E-05  0.366E-05  0.366E-05  0.366E-05
  10.009  0.334E-07  0.836E-08  0.836E-08  0.836E-08  0.836E-08
  10.011  0.190E-10  0.474E-11  0.474E-11  0.474E-11  0.474E-11
  10.013  0.492E-07  0.123E-07  0.123E-07  0.123E-07  0.123E-07
  10.015  0.378E-04  0.946E-05  0.946E-05  0.946E-05  0.946E-05
  10.017  0.394E-02  0.985E-03  0.985E-03  0.985E-03  0.985E-03
  10.019  0.555E-01  0.139E-01  0.139E-01  0.139E-01  0.139E-01
  10.021  0.106E+00  0.264E-01  0.264E-01  0.264E-01  0.264E-01
  10.023  0.274E-01  0.684E-02  0.684E-02  0.684E-02  0.684E-02
  10.025  0.103E-02  0.257E-03  0.257E-03  0.257E-03  0.257E-03
  10.027  0.117E-04  0.293E-05  0.293E-05  0.293E-05  0.293E-05
  10.029  0.173E-04  0.431E-05  0.431E-05  0.431E-05  0.431E-05
  10.031  0.535E-02  0.134E-02  0.134E-02  0.134E-02  0.134E-02
  10.033  0.226E+00  0.564E-01  0.564E-01  0.564E-01  0.564E-01
  10.035  0.129E+01  0.322E+00  0.322E+00  0.322E+00  0.322E+00
  10.037  0.997E+00  0.249E+00  0.249E+00  0.249E+00  0.249E+00
  10.039  0.177E+00  0.443E-01  0.443E-01  0.443E-01  0.443E-01
  10.041  0.889E+00  0.222E+00  0.222E+00  0.222E+00  0.222E+00
  10.043  0.197E+01  0.492E+00  0.492E+00  0.492E+00  0.492E+00
  10.045  0.114E+01  0.285E+00  0.285E+00  0.285E+00  0.285E+00
  10.047  0.128E+01  0.321E+00  0.321E+00  0.321E+00  0.321E+00
  10.049  0.150E+01  0.375E+00  0.375E+00  0.375E+00  0.375E+00
  10.051  0.130E+01  0.324E+00  0.324E+00  0.324E+00  0.324E+00
  10.053  0.223E+01  0.557E+00  0.557E+00  0.557E+00  0.557E+00
  10.055  0.210E+01  0.525E+00  0.525E+00  0.525E+00  0.525E+00
  10.057  0.756E+00  0.189E+00  0.189E+00  0.189E+00  0.189E+00
  10.059  0.150E+01  0.376E+00  0.376E+00  0.376E+00  0.376E+00
  10.061  0.187E+01  0.466E+00  0.466E+00  0.466E+00  0.466E+00
  10.063  0.670E+01  0.168E+01  0.168E+01  0.168E+01  0.168E+01
  10.065  0.623E+01  0.156E+01  0.156E+01  0.156E+01  0.156E+01
  10.067  0.916E+00  0.229E+00  0.229E+00  0.229E+00  0.229E+00
  10.069  0.373E-01  0.932E-02  0.932E-02  0.932E-02  0.932E-02
  10.071  0.734E-03  0.183E-03  0.183E-03  0.183E-03  0.183E-03
  10.073  0.130E-03  0.326E-04  0.326E-04  0.326E-04  0.326E-04
  10.075  0.135E-01  0.337E-02  0.337E-02  0.337E-02  0.337E-02
  10.077  0.193E+00  0.482E-01  0.482E-01  0.482E-01  0.482E-01
  10.079  0.374E+00  0.935E-01  0.935E-01  0.935E-01  0.935E-01
  10.081  0.982E-01  0.245E-01  0.245E-01  0.245E-01  0.245E-01
  10.083  0.350E-02  0.876E-03  0.876E-03  0.876E-03  0.876E-03
  10.085  0.947E-04  0.237E-04  0.237E-04  0.237E-04  0.237E-04
  10.087  0.474E-04  0.119E-04  0.119E-04  0.119E-04  0.119E-04
  10.089  0.563E-05  0.141E-05  0.141E-05  0.141E-05  0.141E-05
  10.091  0.578E-03  0.144E-03  0.144E-03  0.144E-03  0.144E-03
  10.093  0.307E-01  0.767E-02  0.767E-02  0.767E-02  0.767E-02
  10.095  0.255E+00  0.637E-01  0.637E-01  0.637E-01  0.637E-01
  10.097  0.317E+00  0.792E-01  0.792E-01  0.792E-01  0.792E-01
  10.099  0.610E-01  0.152E-01  0.152E-01  0.152E-01  0.152E-01
  10.101  0.142E+00  0.356E-01  0.356E-01  0.356E-01  0.356E-01
  10.103  0.599E+00  0.150E+00  0.150E+00  0.150E+00  0.150E+00
  10.105  0.345E+00  0.862E-01  0.862E-01  0.862E-01  0.862E-01
  10.107  0.275E-01  0.687E-02  0.687E-02  0.687E-02  0.687E-02
  10.109  0.180E-01  0.451E-02  0.451E-02  0.451E-02  0.451E-02
  10.111  0.766E-01  0.191E-01  0.191E-01  0.191E-01  0.191E-01
  10.113  0.498E-01  0.125E-01  0.125E-01  0.125E-01  0.125E-01
  10.115  0.814E-01  0.203E-01  0.203E-01  0.203E-01  0.203E-01
  10.117  0.267E+00  0.666E-01  0.666E-01  0.666E-01  0.666E-01
  10.119  0.124E+00  0.310E-01  0.310E-01  0.310E-01  0.310E-01
  10.121  0.783E-02  0.196E-02  0.196E-02  0.196E-02  0.196E-02
  10.123  0.668E-04  0.167E-04  0.167E-04  0.167E-04  0.167E-04
  10.125  0.771E-07  0.193E-07  0.193E-07  0.193E-07  0.193E-07
  10.127  0.121E-10  0.301E-11  0.301E-11  0.301E-11  0.301E-11
  10.129  0.277E-15  0.691E-16  0.691E-16  0.691E-16  0.691E-16
  10.131  0.150E-11  0.376E-12  0.376E-12  0.376E-12  0.376E-12
  10.133  0.142E-07  0.354E-08  0.354E-08  0.354E-08  0.354E-08
  10.135  0.181E-04  0.452E-05  0.452E-05  0.452E-05  0.452E-05
  10.137  0.312E-02  0.779E-03  0.779E-03  0.779E-03  0.779E-03
  10.139  0.728E-01  0.182E-01  0.182E-01  0.182E-01  0.182E-01
  10.141  0.230E+00  0.575E-01  0.575E-01  0.575E-01  0.575E-01
  10.143  0.984E-01  0.246E-01  0.246E-01  0.246E-01  0.246E-01
  10.145  0.571E-02  0.143E-02  0.143E-02  0.143E-02  0.143E-02
  10.147  0.130E-02  0.324E-03  0.324E-03  0.324E-03  0.324E-03
  10.149  0.205E-01  0.513E-02  0.513E-02  0.513E-02  0.513E-02
  10.151  0.463E-01  0.116E-01  0.116E-01  0.116E-01  0.116E-01
  10.153  0.227E-01  0.569E-02  0.569E-02  0.569E-02  0.569E-02
  10.155  0.138E+00  0.344E-01  0.344E-01  0.344E-01  0.344E-01
  10.157  0.510E+00  0.127E+00  0.127E+00  0.127E+00  0.127E+00
  10.159  0.330E+00  0.826E-01  0.826E-01  0.826E-01  0.826E-01
  10.161  0.309E-01  0.773E-02  0.773E-02  0.773E-02  0.773E-02
  10.163  0.129E-02  0.323E-03  0.323E-03  0.323E-03  0.323E-03
  10.165  0.370E-01  0.924E-02  0.924E-02  0.924E-02  0.924E-02
  10.167  0.226E+00  0.564E-01  0.564E-01  0.564E-01  0.564E-01
  10.169  0.202E+00  0.506E-01  0.506E-01  0.506E-01  0.506E-01
  10.171  0.286E-01  0.715E-02  0.715E-02  0.715E-02  0.715E-02
  10.173  0.184E-01  0.460E-02  0.460E-02  0.460E-02  0.460E-02
  10.175  0.295E-01  0.738E-02  0.738E-02  0.738E-02  0.738E-02
  10.177  0.212E-01  0.530E-02  0.530E-02  0.530E-02  0.530E-02
  10.179  0.237E-01  0.593E-02  0.593E-02  0.593E-02  0.593E-02
  10.181  0.259E-01  0.648E-02  0.648E-02  0.648E-02  0.648E-02
  10.183  0.173E-01  0.434E-02  0.434E-02  0.434E-02  0.434E-02
  10.185  0.227E-01  0.568E-02  0.568E-02  0.568E-02  0.568E-02
  10.187  0.106E+00  0.265E-01  0.265E-01  0.265E-01  0.265E-01
  10.189  0.172E+00  0.431E-01  0.431E-01  0.431E-01  0.431E-01
  10.191  0.426E-01  0.106E-01  0.106E-01  0.106E-01  0.106E-01
  10.193  0.148E-01  0.371E-02  0.371E-02  0.371E-02  0.371E-02
  10.195  0.172E+00  0.430E-01  0.430E-01  0.430E-01  0.430E-01
  10.197  0.368E+00  0.920E-01  0.920E-01  0.920E-01  0.920E-01
  10.199  0.158E+00  0.395E-01  0.395E-01  0.395E-01  0.395E-01
  10.201  0.604E-01  0.151E-01  0.151E-01  0.151E-01  0.151E-01
  10.203  0.122E-01  0.306E-02  0.306E-02  0.306E-02  0.306E-02
  10.205  0.726E-03  0.182E-03  0.182E-03  0.182E-03  0.182E-03
  10.207  0.927E-02  0.232E-02  0.232E-02  0.232E-02  0.232E-02
  10.209  0.421E-01  0.105E-01  0.105E-01  0.105E-01  0.105E-01
  10.211  0.549E-01  0.137E-01  0.137E-01  0.137E-01  0.137E-01
  10.213  0.209E+00  0.523E-01  0.523E-01  0.523E-01  0.523E-01
  10.215  0.204E+00  0.511E-01  0.511E-01  0.511E-01  0.511E-01
  10.217  0.277E-01  0.693E-02  0.693E-02  0.693E-02  0.693E-02
  10.219  0.109E-01  0.272E-02  0.272E-02  0.272E-02  0.272E-02
  10.221  0.173E+00  0.432E-01  0.432E-01  0.432E-01  0.432E-01
  10.223  0.437E+00  0.109E+00  0.109E+00  0.109E+00  0.109E+00
  10.225  0.489E+00  0.122E+00  0.122E+00  0.122E+00  0.122E+00
  10.227  0.989E+00  0.247E+00  0.247E+00  0.247E+00  0.247E+00
  10.229  0.623E+00  0.156E+00  0.156E+00  0.156E+00  0.156E+00
  10.231  0.116E+00  0.289E-01  0.289E-01  0.289E-01  0.289E-01
  10.233  0.111E-01  0.277E-02  0.277E-02  0.277E-02  0.277E-02
  10.235  0.112E-02  0.281E-03  0.281E-03  0.281E-03  0.281E-03
  10.237  0.525E-04  0.131E-04  0.131E-04  0.131E-04  0.131E-04
  10.239  0.542E-02  0.136E-02  0.136E-02  0.136E-02  0.136E-02
  10.241  0.169E+00  0.421E-01  0.421E-01  0.421E-01  0.421E-01
  10.243  0.864E+00  0.216E+00  0.216E+00  0.216E+00  0.216E+00
  10.245  0.104E+01  0.260E+00  0.260E+00  0.260E+00  0.260E+00
  10.247  0.580E+00  0.145E+00  0.145E+00  0.145E+00  0.145E+00
  10.249  0.917E-01  0.229E-01  0.229E-01  0.229E-01  0.229E-01
  10.251  0.607E-02  0.152E-02  0.152E-02  0.152E-02  0.152E-02
  10.253  0.535E-02  0.134E-02  0.134E-02  0.134E-02  0.134E-02
  10.255  0.126E-02  0.315E-03  0.315E-03  0.315E-03  0.315E-03
  10.257  0.641E-03  0.160E-03  0.160E-03  0.160E-03  0.160E-03
  10.259  0.328E-02  0.819E-03  0.819E-03  0.819E-03  0.819E-03
  10.261  0.417E-01  0.104E-01  0.104E-01  0.104E-01  0.104E-01
  10.263  0.146E+00  0.366E-01  0.366E-01  0.366E-01  0.366E-01
  10.265  0.856E-01  0.214E-01  0.214E-01  0.214E-01  0.214E-01
  10.267  0.156E-01  0.390E-02  0.390E-02  0.390E-02  0.390E-02
  10.269  0.179E+00  0.449E-01  0.449E-01  0.449E-01  0.449E-01
  10.271  0.522E+00  0.130E+00  0.130E+00  0.130E+00  0.130E+00
  10.273  0.221E+00  0.553E-01  0.553E-01  0.553E-01  0.553E-01
  10.275  0.353E-01  0.882E-02  0.882E-02  0.882E-02  0.882E-02
  10.277  0.270E+00  0.674E-01  0.674E-01  0.674E-01  0.674E-01
  10.279  0.619E+00  0.155E+00  0.155E+00  0.155E+00  0.155E+00
  10.281  0.193E+00  0.482E-01  0.482E-01  0.482E-01  0.482E-01
  10.283  0.813E-02  0.203E-02  0.203E-02  0.203E-02  0.203E-02
  10.285  0.500E-03  0.125E-03  0.125E-03  0.125E-03  0.125E-03
  10.287  0.487E-02  0.122E-02  0.122E-02  0.122E-02  0.122E-02
  10.289  0.251E-01  0.628E-02  0.628E-02  0.628E-02  0.628E-02
  10.291  0.418E-01  0.105E-01  0.105E-01  0.105E-01  0.105E-01
  10.293  0.116E-01  0.290E-02  0.290E-02  0.290E-02  0.290E-02
  10.295  0.390E-01  0.976E-02  0.976E-02  0.976E-02  0.976E-02
  10.297  0.283E+00  0.707E-01  0.707E-01  0.707E-01  0.707E-01
  10.299  0.500E+00  0.125E+00  0.125E+00  0.125E+00  0.125E+00
  10.301  0.712E+00  0.178E+00  0.178E+00  0.178E+00  0.178E+00
  10.303  0.301E+00  0.753E-01  0.753E-01  0.753E-01  0.753E-01
  10.305  0.195E-01  0.487E-02  0.487E-02  0.487E-02  0.487E-02
  10.307  0.278E-02  0.694E-03  0.694E-03  0.694E-03  0.694E-03
  10.309  0.122E-01  0.304E-02  0.304E-02  0.304E-02  0.304E-02
  10.311  0.770E-02  0.193E-02  0.193E-02  0.193E-02  0.193E-02
  10.313  0.660E-03  0.165E-03  0.165E-03  0.165E-03  0.165E-03
  10.315  0.767E-05  0.192E-05  0.192E-05  0.192E-05  0.192E-05
  10.317  0.228E-06  0.571E-07  0.571E-07  0.571E-07  0.571E-07
  10.319  0.457E-04  0.114E-04  0.114E-04  0.114E-04  0.114E-04
  10.321  0.131E-02  0.327E-03  0.327E-03  0.327E-03  0.327E-03
  10.323  0.508E-02  0.127E-02  0.127E-02  0.127E-02  0.127E-02
  10.325  0.294E-02  0.736E-03  0.736E-03  0.736E-03  0.736E-03
  10.327  0.132E-02  0.330E-03  0.330E-03  0.330E-03  0.330E-03
  10.329  0.622E-03  0.156E-03  0.156E-03  0.156E-03  0.156E-03
  10.331  0.485E-03  0.121E-03  0.121E-03  0.121E-03  0.121E-03
  10.333  0.355E-01  0.887E-02  0.887E-02  0.887E-02  0.887E-02
  10.335  0.395E+00  0.989E-01  0.989E-01  0.989E-01  0.989E-01
  10.337  0.659E+00  0.165E+00  0.165E+00  0.165E+00  0.165E+00
  10.339  0.528E+00  0.132E+00  0.132E+00  0.132E+00  0.132E+00
  10.341  0.765E+00  0.191E+00  0.191E+00  0.191E+00  0.191E+00
  10.343  0.247E+00  0.617E-01  0.617E-01  0.617E-01  0.617E-01
  10.345  0.140E-01  0.351E-02  0.351E-02  0.351E-02  0.351E-02
  10.347  0.706E-01  0.177E-01  0.177E-01  0.177E-01  0.177E-01
  10.349  0.518E+00  0.130E+00  0.130E+00  0.130E+00  0.130E+00
  10.351  0.661E+00  0.165E+00  0.165E+00  0.165E+00  0.165E+00
  10.353  0.119E+00  0.298E-01  0.298E-01  0.298E-01  0.298E-01
  10.355  0.298E-02  0.746E-03  0.746E-03  0.746E-03  0.746E-03
  10.357  0.537E-03  0.134E-03  0.134E-03  0.134E-03  0.134E-03
  10.359  0.219E-02  0.547E-03  0.547E-03  0.547E-03  0.547E-03
  10.361  0.213E-01  0.532E-02  0.532E-02  0.532E-02  0.532E-02
  10.363  0.198E+00  0.495E-01  0.495E-01  0.495E-01  0.495E-01
  10.365  0.648E+00  0.162E+00  0.162E+00  0.162E+00  0.162E+00
  10.367  0.324E+00  0.809E-01  0.809E-01  0.809E-01  0.809E-01
  10.369  0.253E+00  0.632E-01  0.632E-01  0.632E-01  0.632E-01
  10.371  0.871E+00  0.218E+00  0.218E+00  0.218E+00  0.218E+00
  10.373  0.957E+00  0.239E+00  0.239E+00  0.239E+00  0.239E+00
  10.375  0.380E+00  0.951E-01  0.951E-01  0.951E-01  0.951E-01
  10.377  0.236E+00  0.589E-01  0.589E-01  0.589E-01  0.589E-01
  10.379  0.337E+00  0.841E-01  0.841E-01  0.841E-01  0.841E-01
  10.381  0.105E+00  0.262E-01  0.262E-01  0.262E-01  0.262E-01
  10.383  0.348E-01  0.869E-02  0.869E-02  0.869E-02  0.869E-02
  10.385  0.234E-01  0.585E-02  0.585E-02  0.585E-02  0.585E-02
  10.387  0.254E-02  0.636E-03  0.636E-03  0.636E-03  0.636E-03
  10.389  0.139E-03  0.347E-04  0.347E-04  0.347E-04  0.347E-04
  10.391  0.474E-03  0.118E-03  0.118E-03  0.118E-03  0.118E-03
  10.393  0.306E-03  0.766E-04  0.766E-04  0.766E-04  0.766E-04
  10.395  0.271E-04  0.677E-05  0.677E-05  0.677E-05  0.677E-05
  10.397  0.405E-06  0.101E-06  0.101E-06  0.101E-06  0.101E-06
  10.399  0.620E-04  0.155E-04  0.155E-04  0.155E-04  0.155E-04
  10.401  0.813E-02  0.203E-02  0.203E-02  0.203E-02  0.203E-02
  10.403  0.182E+00  0.456E-01  0.456E-01  0.456E-01  0.456E-01
  10.405  0.658E+00  0.165E+00  0.165E+00  0.165E+00  0.165E+00
  10.407  0.425E+00  0.106E+00  0.106E+00  0.106E+00  0.106E+00
  10.409  0.611E+00  0.153E+00  0.153E+00  0.153E+00  0.153E+00
  10.411  0.636E+00  0.159E+00  0.159E+00  0.159E+00  0.159E+00
  10.413  0.956E-01  0.239E-01  0.239E-01  0.239E-01  0.239E-01
  10.415  0.478E-02  0.120E-02  0.120E-02  0.120E-02  0.120E-02
  10.417  0.110E-02  0.275E-03  0.275E-03  0.275E-03  0.275E-03
  10.419  0.119E-01  0.298E-02  0.298E-02  0.298E-02  0.298E-02
  10.421  0.790E-01  0.198E-01  0.198E-01  0.198E-01  0.198E-01
  10.423  0.751E-01  0.188E-01  0.188E-01  0.188E-01  0.188E-01
  10.425  0.108E-01  0.271E-02  0.271E-02  0.271E-02  0.271E-02
  10.427  0.152E-01  0.379E-02  0.379E-02  0.379E-02  0.379E-02
  10.429  0.495E-01  0.124E-01  0.124E-01  0.124E-01  0.124E-01
  10.431  0.334E+00  0.834E-01  0.834E-01  0.834E-01  0.834E-01
  10.433  0.694E+00  0.173E+00  0.173E+00  0.173E+00  0.173E+00
  10.435  0.210E+00  0.525E-01  0.525E-01  0.525E-01  0.525E-01
  10.437  0.102E-01  0.256E-02  0.256E-02  0.256E-02  0.256E-02
  10.439  0.772E-03  0.193E-03  0.193E-03  0.193E-03  0.193E-03
  10.441  0.163E-02  0.407E-03  0.407E-03  0.407E-03  0.407E-03
  10.443  0.673E-02  0.168E-02  0.168E-02  0.168E-02  0.168E-02
  10.445  0.879E-02  0.220E-02  0.220E-02  0.220E-02  0.220E-02
  10.447  0.639E-02  0.160E-02  0.160E-02  0.160E-02  0.160E-02
  10.449  0.506E-02  0.126E-02  0.126E-02  0.126E-02  0.126E-02
  10.451  0.120E-02  0.299E-03  0.299E-03  0.299E-03  0.299E-03
  10.453  0.535E-03  0.134E-03  0.134E-03  0.134E-03  0.134E-03
  10.455  0.342E-02  0.854E-03  0.854E-03  0.854E-03  0.854E-03
  10.457  0.363E-01  0.906E-02  0.906E-02  0.906E-02  0.906E-02
  10.459  0.173E+00  0.433E-01  0.433E-01  0.433E-01  0.433E-01
  10.461  0.240E+00  0.600E-01  0.600E-01  0.600E-01  0.600E-01
  10.463  0.611E-01  0.153E-01  0.153E-01  0.153E-01  0.153E-01
  10.465  0.763E-01  0.191E-01  0.191E-01  0.191E-01  0.191E-01
  10.467  0.103E+00  0.258E-01  0.258E-01  0.258E-01  0.258E-01
  10.469  0.732E-01  0.183E-01  0.183E-01  0.183E-01  0.183E-01
  10.471  0.234E-01  0.584E-02  0.584E-02  0.584E-02  0.584E-02
  10.473  0.186E-01  0.464E-02  0.464E-02  0.464E-02  0.464E-02
  10.475  0.250E+00  0.626E-01  0.626E-01  0.626E-01  0.626E-01
  10.477  0.655E+00  0.164E+00  0.164E+00  0.164E+00  0.164E+00
  10.479  0.293E+00  0.734E-01  0.734E-01  0.734E-01  0.734E-01
  10.481  0.205E+00  0.512E-01  0.512E-01  0.512E-01  0.512E-01
  10.483  0.107E+01  0.267E+00  0.267E+00  0.267E+00  0.267E+00
  10.485  0.139E+01  0.348E+00  0.348E+00  0.348E+00  0.348E+00
  10.487  0.277E+00  0.691E-01  0.691E-01  0.691E-01  0.691E-01
  10.489  0.806E-02  0.202E-02  0.202E-02  0.202E-02  0.202E-02
  10.491  0.195E-02  0.486E-03  0.486E-03  0.486E-03  0.486E-03
  10.493  0.117E-01  0.294E-02  0.294E-02  0.294E-02  0.294E-02
  10.495  0.188E-01  0.469E-02  0.469E-02  0.469E-02  0.469E-02
  10.497  0.424E-01  0.106E-01  0.106E-01  0.106E-01  0.106E-01
  10.499  0.508E-01  0.127E-01  0.127E-01  0.127E-01  0.127E-01
  10.501  0.361E+00  0.903E-01  0.903E-01  0.903E-01  0.903E-01
  10.503  0.692E+00  0.173E+00  0.173E+00  0.173E+00  0.173E+00
  10.505  0.432E+00  0.108E+00  0.108E+00  0.108E+00  0.108E+00
  10.507  0.126E+01  0.314E+00  0.314E+00  0.314E+00  0.314E+00
  10.509  0.981E+00  0.245E+00  0.245E+00  0.245E+00  0.245E+00
  10.511  0.211E+00  0.528E-01  0.528E-01  0.528E-01  0.528E-01
  10.513  0.124E+00  0.310E-01  0.310E-01  0.310E-01  0.310E-01
  10.515  0.663E-01  0.166E-01  0.166E-01  0.166E-01  0.166E-01
  10.517  0.192E-01  0.479E-02  0.479E-02  0.479E-02  0.479E-02
  10.519  0.161E-02  0.401E-03  0.401E-03  0.401E-03  0.401E-03
  10.521  0.489E-04  0.122E-04  0.122E-04  0.122E-04  0.122E-04
  10.523  0.880E-03  0.220E-03  0.220E-03  0.220E-03  0.220E-03
  10.525  0.113E-01  0.282E-02  0.282E-02  0.282E-02  0.282E-02
  10.527  0.250E-01  0.625E-02  0.625E-02  0.625E-02  0.625E-02
  10.529  0.298E-01  0.746E-02  0.746E-02  0.746E-02  0.746E-02
  10.531  0.200E-01  0.499E-02  0.499E-02  0.499E-02  0.499E-02
  10.533  0.200E-01  0.499E-02  0.499E-02  0.499E-02  0.499E-02
  10.535  0.268E-01  0.669E-02  0.669E-02  0.669E-02  0.669E-02
  10.537  0.186E-01  0.464E-02  0.464E-02  0.464E-02  0.464E-02
  10.539  0.190E-01  0.474E-02  0.474E-02  0.474E-02  0.474E-02
  10.541  0.624E-01  0.156E-01  0.156E-01  0.156E-01  0.156E-01
  10.543  0.798E-01  0.199E-01  0.199E-01  0.199E-01  0.199E-01
  10.545  0.211E+00  0.528E-01  0.528E-01  0.528E-01  0.528E-01
  10.547  0.147E+00  0.367E-01  0.367E-01  0.367E-01  0.367E-01
  10.549  0.327E+00  0.818E-01  0.818E-01  0.818E-01  0.818E-01
  10.551  0.696E+00  0.174E+00  0.174E+00  0.174E+00  0.174E+00
  10.553  0.279E+00  0.698E-01  0.698E-01  0.698E-01  0.698E-01
  10.555  0.730E-01  0.183E-01  0.183E-01  0.183E-01  0.183E-01
  10.557  0.858E-01  0.214E-01  0.214E-01  0.214E-01  0.214E-01
  10.559  0.812E-01  0.203E-01  0.203E-01  0.203E-01  0.203E-01
  10.561  0.250E+00  0.624E-01  0.624E-01  0.624E-01  0.624E-01
  10.563  0.819E+00  0.205E+00  0.205E+00  0.205E+00  0.205E+00
  10.565  0.397E+00  0.992E-01  0.992E-01  0.992E-01  0.992E-01
  10.567  0.319E-01  0.797E-02  0.797E-02  0.797E-02  0.797E-02
  10.569  0.281E-01  0.702E-02  0.702E-02  0.702E-02  0.702E-02
  10.571  0.158E+00  0.395E-01  0.395E-01  0.395E-01  0.395E-01
  10.573  0.620E+00  0.155E+00  0.155E+00  0.155E+00  0.155E+00
  10.575  0.551E+00  0.138E+00  0.138E+00  0.138E+00  0.138E+00
  10.577  0.786E-01  0.197E-01  0.197E-01  0.197E-01  0.197E-01
  10.579  0.252E-01  0.631E-02  0.631E-02  0.631E-02  0.631E-02
  10.581  0.975E-02  0.244E-02  0.244E-02  0.244E-02  0.244E-02
  10.583  0.537E-03  0.134E-03  0.134E-03  0.134E-03  0.134E-03
  10.585  0.403E-05  0.101E-05  0.101E-05  0.101E-05  0.101E-05
  10.587  0.544E-08  0.136E-08  0.136E-08  0.136E-08  0.136E-08
  10.589  0.744E-07  0.186E-07  0.186E-07  0.186E-07  0.186E-07
  10.591  0.120E-04  0.300E-05  0.300E-05  0.300E-05  0.300E-05
  10.593  0.136E-02  0.340E-03  0.340E-03  0.340E-03  0.340E-03
  10.595  0.328E-01  0.819E-02  0.819E-02  0.819E-02  0.819E-02
  10.597  0.114E+00  0.284E-01  0.284E-01  0.284E-01  0.284E-01
  10.599  0.622E-01  0.155E-01  0.155E-01  0.155E-01  0.155E-01
  10.601  0.503E-01  0.126E-01  0.126E-01  0.126E-01  0.126E-01
  10.603  0.610E-01  0.153E-01  0.153E-01  0.153E-01  0.153E-01
  10.605  0.826E-01  0.207E-01  0.207E-01  0.207E-01  0.207E-01
  10.607  0.928E-01  0.232E-01  0.232E-01  0.232E-01  0.232E-01
  10.609  0.601E-01  0.150E-01  0.150E-01  0.150E-01  0.150E-01
  10.611  0.208E-01  0.519E-02  0.519E-02  0.519E-02  0.519E-02
  10.613  0.325E-02  0.812E-03  0.812E-03  0.812E-03  0.812E-03
  10.615  0.519E-03  0.130E-03  0.130E-03  0.130E-03  0.130E-03
  10.617  0.624E-02  0.156E-02  0.156E-02  0.156E-02  0.156E-02
  10.619  0.576E-01  0.144E-01  0.144E-01  0.144E-01  0.144E-01
  10.621  0.155E+00  0.387E-01  0.387E-01  0.387E-01  0.387E-01
  10.623  0.647E+00  0.162E+00  0.162E+00  0.162E+00  0.162E+00
  10.625  0.103E+01  0.256E+00  0.256E+00  0.256E+00  0.256E+00
  10.627  0.707E+00  0.177E+00  0.177E+00  0.177E+00  0.177E+00
  10.629  0.213E+00  0.532E-01  0.532E-01  0.532E-01  0.532E-01
  10.631  0.197E+00  0.493E-01  0.493E-01  0.493E-01  0.493E-01
  10.633  0.843E-01  0.211E-01  0.211E-01  0.211E-01  0.211E-01
  10.635  0.550E-02  0.137E-02  0.137E-02  0.137E-02  0.137E-02
  10.637  0.247E-02  0.617E-03  0.617E-03  0.617E-03  0.617E-03
  10.639  0.349E-02  0.872E-03  0.872E-03  0.872E-03  0.872E-03
  10.641  0.221E-01  0.551E-02  0.551E-02  0.551E-02  0.551E-02
  10.643  0.541E+00  0.135E+00  0.135E+00  0.135E+00  0.135E+00
  10.645  0.222E+01  0.554E+00  0.554E+00  0.554E+00  0.554E+00
  10.647  0.198E+01  0.496E+00  0.496E+00  0.496E+00  0.496E+00
  10.649  0.753E+00  0.188E+00  0.188E+00  0.188E+00  0.188E+00
  10.651  0.164E+00  0.411E-01  0.411E-01  0.411E-01  0.411E-01
  10.653  0.178E+00  0.446E-01  0.446E-01  0.446E-01  0.446E-01
  10.655  0.127E+00  0.317E-01  0.317E-01  0.317E-01  0.317E-01
  10.657  0.136E-01  0.341E-02  0.341E-02  0.341E-02  0.341E-02
  10.659  0.344E-03  0.861E-04  0.861E-04  0.861E-04  0.861E-04
  10.661  0.682E-04  0.171E-04  0.171E-04  0.171E-04  0.171E-04
  10.663  0.464E-05  0.116E-05  0.116E-05  0.116E-05  0.116E-05
  10.665  0.154E-06  0.384E-07  0.384E-07  0.384E-07  0.384E-07
  10.667  0.176E-04  0.439E-05  0.439E-05  0.439E-05  0.439E-05
  10.669  0.146E-02  0.366E-03  0.366E-03  0.366E-03  0.366E-03
  10.671  0.172E-01  0.431E-02  0.431E-02  0.431E-02  0.431E-02
  10.673  0.276E-01  0.689E-02  0.689E-02  0.689E-02  0.689E-02
  10.675  0.683E-02  0.171E-02  0.171E-02  0.171E-02  0.171E-02
  10.677  0.123E-01  0.309E-02  0.309E-02  0.309E-02  0.309E-02
  10.679  0.259E-01  0.647E-02  0.647E-02  0.647E-02  0.647E-02
  10.681  0.973E-02  0.243E-02  0.243E-02  0.243E-02  0.243E-02
  10.683  0.789E-03  0.197E-03  0.197E-03  0.197E-03  0.197E-03
  10.685  0.163E-04  0.408E-05  0.408E-05  0.408E-05  0.408E-05
  10.687  0.568E-05  0.142E-05  0.142E-05  0.142E-05  0.142E-05
  10.689  0.311E-03  0.777E-04  0.777E-04  0.777E-04  0.777E-04
  10.691  0.404E-02  0.101E-02  0.101E-02  0.101E-02  0.101E-02
  10.693  0.275E-01  0.687E-02  0.687E-02  0.687E-02  0.687E-02
  10.695  0.470E-01  0.117E-01  0.117E-01  0.117E-01  0.117E-01
  10.697  0.623E-01  0.156E-01  0.156E-01  0.156E-01  0.156E-01
  10.699  0.163E+00  0.407E-01  0.407E-01  0.407E-01  0.407E-01
  10.701  0.218E+00  0.544E-01  0.544E-01  0.544E-01  0.544E-01
  10.703  0.650E+00  0.162E+00  0.162E+00  0.162E+00  0.162E+00
  10.705  0.601E+00  0.150E+00  0.150E+00  0.150E+00  0.150E+00
  10.707  0.118E+00  0.294E-01  0.294E-01  0.294E-01  0.294E-01
  10.709  0.855E-01  0.214E-01  0.214E-01  0.214E-01  0.214E-01
  10.711  0.297E-01  0.743E-02  0.743E-02  0.743E-02  0.743E-02
  10.713  0.874E-02  0.219E-02  0.219E-02  0.219E-02  0.219E-02
  10.715  0.128E+00  0.321E-01  0.321E-01  0.321E-01  0.321E-01
  10.717  0.610E+00  0.153E+00  0.153E+00  0.153E+00  0.153E+00
  10.719  0.677E+00  0.169E+00  0.169E+00  0.169E+00  0.169E+00
  10.721  0.125E+00  0.311E-01  0.311E-01  0.311E-01  0.311E-01
  10.723  0.102E-01  0.256E-02  0.256E-02  0.256E-02  0.256E-02
  10.725  0.275E-01  0.687E-02  0.687E-02  0.687E-02  0.687E-02
  10.727  0.294E+00  0.735E-01  0.735E-01  0.735E-01  0.735E-01
  10.729  0.821E+00  0.205E+00  0.205E+00  0.205E+00  0.205E+00
  10.731  0.393E+00  0.982E-01  0.982E-01  0.982E-01  0.982E-01
  10.733  0.501E-01  0.125E-01  0.125E-01  0.125E-01  0.125E-01
  10.735  0.457E-02  0.114E-02  0.114E-02  0.114E-02  0.114E-02
  10.737  0.988E-02  0.247E-02  0.247E-02  0.247E-02  0.247E-02
  10.739  0.457E-01  0.114E-01  0.114E-01  0.114E-01  0.114E-01
  10.741  0.334E-01  0.835E-02  0.835E-02  0.835E-02  0.835E-02
  10.743  0.347E-02  0.868E-03  0.868E-03  0.868E-03  0.868E-03
  10.745  0.883E-03  0.221E-03  0.221E-03  0.221E-03  0.221E-03
  10.747  0.128E-01  0.321E-02  0.321E-02  0.321E-02  0.321E-02
  10.749  0.621E-01  0.155E-01  0.155E-01  0.155E-01  0.155E-01
  10.751  0.736E-01  0.184E-01  0.184E-01  0.184E-01  0.184E-01
  10.753  0.168E+00  0.421E-01  0.421E-01  0.421E-01  0.421E-01
  10.755  0.174E+00  0.436E-01  0.436E-01  0.436E-01  0.436E-01
  10.757  0.363E-01  0.907E-02  0.907E-02  0.907E-02  0.907E-02
  10.759  0.331E-02  0.826E-03  0.826E-03  0.826E-03  0.826E-03
  10.761  0.193E-03  0.483E-04  0.483E-04  0.483E-04  0.483E-04
  10.763  0.225E-02  0.562E-03  0.562E-03  0.562E-03  0.562E-03
  10.765  0.852E-01  0.213E-01  0.213E-01  0.213E-01  0.213E-01
  10.767  0.610E+00  0.152E+00  0.152E+00  0.152E+00  0.152E+00
  10.769  0.723E+00  0.181E+00  0.181E+00  0.181E+00  0.181E+00
  10.771  0.127E+00  0.317E-01  0.317E-01  0.317E-01  0.317E-01
  10.773  0.885E-02  0.221E-02  0.221E-02  0.221E-02  0.221E-02
  10.775  0.184E-01  0.461E-02  0.461E-02  0.461E-02  0.461E-02
  10.777  0.933E-02  0.233E-02  0.233E-02  0.233E-02  0.233E-02
  10.779  0.108E-01  0.269E-02  0.269E-02  0.269E-02  0.269E-02
  10.781  0.272E+00  0.680E-01  0.680E-01  0.680E-01  0.680E-01
  10.783  0.126E+01  0.316E+00  0.316E+00  0.316E+00  0.316E+00
  10.785  0.885E+00  0.221E+00  0.221E+00  0.221E+00  0.221E+00
  10.787  0.155E+00  0.388E-01  0.388E-01  0.388E-01  0.388E-01
  10.789  0.713E+00  0.178E+00  0.178E+00  0.178E+00  0.178E+00
  10.791  0.143E+01  0.358E+00  0.358E+00  0.358E+00  0.358E+00
  10.793  0.448E+00  0.112E+00  0.112E+00  0.112E+00  0.112E+00
  10.795  0.677E-01  0.169E-01  0.169E-01  0.169E-01  0.169E-01
  10.797  0.702E-01  0.175E-01  0.175E-01  0.175E-01  0.175E-01
  10.799  0.954E-01  0.238E-01  0.238E-01  0.238E-01  0.238E-01
  10.801  0.126E+00  0.315E-01  0.315E-01  0.315E-01  0.315E-01
  10.803  0.295E-01  0.738E-02  0.738E-02  0.738E-02  0.738E-02
  10.805  0.368E-01  0.921E-02  0.921E-02  0.921E-02  0.921E-02
  10.807  0.801E-01  0.200E-01  0.200E-01  0.200E-01  0.200E-01
  10.809  0.139E+00  0.348E-01  0.348E-01  0.348E-01  0.348E-01
  10.811  0.153E+00  0.384E-01  0.384E-01  0.384E-01  0.384E-01
  10.813  0.282E+00  0.706E-01  0.706E-01  0.706E-01  0.706E-01
  10.815  0.790E+00  0.197E+00  0.197E+00  0.197E+00  0.197E+00
  10.817  0.383E+00  0.958E-01  0.958E-01  0.958E-01  0.958E-01
  10.819  0.457E-01  0.114E-01  0.114E-01  0.114E-01  0.114E-01
  10.821  0.196E-01  0.489E-02  0.489E-02  0.489E-02  0.489E-02
  10.823  0.890E-02  0.222E-02  0.222E-02  0.222E-02  0.222E-02
  10.825  0.365E-01  0.912E-02  0.912E-02  0.912E-02  0.912E-02
  10.827  0.104E+00  0.261E-01  0.261E-01  0.261E-01  0.261E-01
  10.829  0.726E-01  0.181E-01  0.181E-01  0.181E-01  0.181E-01
  10.831  0.545E-01  0.136E-01  0.136E-01  0.136E-01  0.136E-01
  10.833  0.113E-01  0.282E-02  0.282E-02  0.282E-02  0.282E-02
  10.835  0.183E-02  0.458E-03  0.458E-03  0.458E-03  0.458E-03
  10.837  0.620E-02  0.155E-02  0.155E-02  0.155E-02  0.155E-02
  10.839  0.182E-01  0.456E-02  0.456E-02  0.456E-02  0.456E-02
  10.841  0.690E-01  0.173E-01  0.173E-01  0.173E-01  0.173E-01
  10.843  0.724E-01  0.181E-01  0.181E-01  0.181E-01  0.181E-01
  10.845  0.258E-01  0.644E-02  0.644E-02  0.644E-02  0.644E-02
  10.847  0.264E-02  0.659E-03  0.659E-03  0.659E-03  0.659E-03
  10.849  0.694E-03  0.174E-03  0.174E-03  0.174E-03  0.174E-03
  10.851  0.299E-02  0.748E-03  0.748E-03  0.748E-03  0.748E-03
  10.853  0.768E-02  0.192E-02  0.192E-02  0.192E-02  0.192E-02
  10.855  0.591E-02  0.148E-02  0.148E-02  0.148E-02  0.148E-02
  10.857  0.366E-01  0.915E-02  0.915E-02  0.915E-02  0.915E-02
  10.859  0.988E-01  0.247E-01  0.247E-01  0.247E-01  0.247E-01
  10.861  0.490E+00  0.122E+00  0.122E+00  0.122E+00  0.122E+00
  10.863  0.986E+00  0.246E+00  0.246E+00  0.246E+00  0.246E+00
  10.865  0.800E+00  0.200E+00  0.200E+00  0.200E+00  0.200E+00
  10.867  0.285E+00  0.714E-01  0.714E-01  0.714E-01  0.714E-01
  10.869  0.894E-01  0.223E-01  0.223E-01  0.223E-01  0.223E-01
  10.871  0.225E-01  0.564E-02  0.564E-02  0.564E-02  0.564E-02
  10.873  0.575E-01  0.144E-01  0.144E-01  0.144E-01  0.144E-01
  10.875  0.456E-01  0.114E-01  0.114E-01  0.114E-01  0.114E-01
  10.877  0.656E-02  0.164E-02  0.164E-02  0.164E-02  0.164E-02
  10.879  0.244E-01  0.611E-02  0.611E-02  0.611E-02  0.611E-02
  10.881  0.133E+00  0.332E-01  0.332E-01  0.332E-01  0.332E-01
  10.883  0.195E+00  0.487E-01  0.487E-01  0.487E-01  0.487E-01
  10.885  0.106E+00  0.266E-01  0.266E-01  0.266E-01  0.266E-01
  10.887  0.899E-01  0.225E-01  0.225E-01  0.225E-01  0.225E-01
  10.889  0.796E-01  0.199E-01  0.199E-01  0.199E-01  0.199E-01
  10.891  0.154E-01  0.385E-02  0.385E-02  0.385E-02  0.385E-02
  10.893  0.803E-02  0.201E-02  0.201E-02  0.201E-02  0.201E-02
  10.895  0.192E-02  0.480E-03  0.480E-03  0.480E-03  0.480E-03
  10.897  0.292E-02  0.731E-03  0.731E-03  0.731E-03  0.731E-03
  10.899  0.463E-01  0.116E-01  0.116E-01  0.116E-01  0.116E-01
  10.901  0.475E+00  0.119E+00  0.119E+00  0.119E+00  0.119E+00
  10.903  0.737E+00  0.184E+00  0.184E+00  0.184E+00  0.184E+00
  10.905  0.222E+00  0.554E-01  0.554E-01  0.554E-01  0.554E-01
  10.907  0.529E-01  0.132E-01  0.132E-01  0.132E-01  0.132E-01
  10.909  0.654E-01  0.163E-01  0.163E-01  0.163E-01  0.163E-01
  10.911  0.639E-01  0.160E-01  0.160E-01  0.160E-01  0.160E-01
  10.913  0.342E+00  0.854E-01  0.854E-01  0.854E-01  0.854E-01
  10.915  0.803E+00  0.201E+00  0.201E+00  0.201E+00  0.201E+00
  10.917  0.287E+00  0.718E-01  0.718E-01  0.718E-01  0.718E-01
  10.919  0.210E+00  0.525E-01  0.525E-01  0.525E-01  0.525E-01
  10.921  0.769E+00  0.192E+00  0.192E+00  0.192E+00  0.192E+00
  10.923  0.508E+00  0.127E+00  0.127E+00  0.127E+00  0.127E+00
  10.925  0.150E+00  0.375E-01  0.375E-01  0.375E-01  0.375E-01
  10.927  0.511E-01  0.128E-01  0.128E-01  0.128E-01  0.128E-01
  10.929  0.140E-01  0.350E-02  0.350E-02  0.350E-02  0.350E-02
  10.931  0.191E+00  0.476E-01  0.476E-01  0.476E-01  0.476E-01
  10.933  0.962E+00  0.240E+00  0.240E+00  0.240E+00  0.240E+00
  10.935  0.105E+01  0.263E+00  0.263E+00  0.263E+00  0.263E+00
  10.937  0.257E+00  0.643E-01  0.643E-01  0.643E-01  0.643E-01
  10.939  0.119E-01  0.298E-02  0.298E-02  0.298E-02  0.298E-02
  10.941  0.536E-03  0.134E-03  0.134E-03  0.134E-03  0.134E-03
  10.943  0.113E-01  0.282E-02  0.282E-02  0.282E-02  0.282E-02
  10.945  0.145E+00  0.362E-01  0.362E-01  0.362E-01  0.362E-01
  10.947  0.609E+00  0.152E+00  0.152E+00  0.152E+00  0.152E+00
  10.949  0.495E+00  0.124E+00  0.124E+00  0.124E+00  0.124E+00
  10.951  0.107E+00  0.266E-01  0.266E-01  0.266E-01  0.266E-01
  10.953  0.226E-01  0.565E-02  0.565E-02  0.565E-02  0.565E-02
  10.955  0.655E-01  0.164E-01  0.164E-01  0.164E-01  0.164E-01
  10.957  0.131E+00  0.328E-01  0.328E-01  0.328E-01  0.328E-01
  10.959  0.164E+00  0.410E-01  0.410E-01  0.410E-01  0.410E-01
  10.961  0.500E-01  0.125E-01  0.125E-01  0.125E-01  0.125E-01
  10.963  0.328E-01  0.819E-02  0.819E-02  0.819E-02  0.819E-02
  10.965  0.437E-01  0.109E-01  0.109E-01  0.109E-01  0.109E-01
  10.967  0.124E-01  0.311E-02  0.311E-02  0.311E-02  0.311E-02
  10.969  0.557E-03  0.139E-03  0.139E-03  0.139E-03  0.139E-03
  10.971  0.973E-03  0.243E-03  0.243E-03  0.243E-03  0.243E-03
  10.973  0.896E-02  0.224E-02  0.224E-02  0.224E-02  0.224E-02
  10.975  0.640E-01  0.160E-01  0.160E-01  0.160E-01  0.160E-01
  10.977  0.167E+00  0.417E-01  0.417E-01  0.417E-01  0.417E-01
  10.979  0.184E+00  0.460E-01  0.460E-01  0.460E-01  0.460E-01
  10.981  0.165E+00  0.413E-01  0.413E-01  0.413E-01  0.413E-01
  10.983  0.132E+00  0.331E-01  0.331E-01  0.331E-01  0.331E-01
  10.985  0.233E-01  0.583E-02  0.583E-02  0.583E-02  0.583E-02
  10.987  0.517E-01  0.129E-01  0.129E-01  0.129E-01  0.129E-01
  10.989  0.485E+00  0.121E+00  0.121E+00  0.121E+00  0.121E+00
  10.991  0.669E+00  0.167E+00  0.167E+00  0.167E+00  0.167E+00
  10.993  0.131E+00  0.327E-01  0.327E-01  0.327E-01  0.327E-01
  10.995  0.410E-01  0.103E-01  0.103E-01  0.103E-01  0.103E-01
  10.997  0.924E-01  0.231E-01  0.231E-01  0.231E-01  0.231E-01
  10.999  0.947E-01  0.237E-01  0.237E-01  0.237E-01  0.237E-01
  11.001  0.234E+00  0.584E-01  0.584E-01  0.584E-01  0.584E-01
  11.003  0.705E+00  0.176E+00  0.176E+00  0.176E+00  0.176E+00
  11.005  0.413E+00  0.103E+00  0.103E+00  0.103E+00  0.103E+00
  11.007  0.709E-01  0.177E-01  0.177E-01  0.177E-01  0.177E-01
  11.009  0.182E+00  0.454E-01  0.454E-01  0.454E-01  0.454E-01
  11.011  0.162E+00  0.406E-01  0.406E-01  0.406E-01  0.406E-01
  11.013  0.244E-01  0.609E-02  0.609E-02  0.609E-02  0.609E-02
  11.015  0.614E-03  0.154E-03  0.154E-03  0.154E-03  0.154E-03
  11.017  0.326E-04  0.815E-05  0.815E-05  0.815E-05  0.815E-05
  11.019  0.809E-04  0.202E-04  0.202E-04  0.202E-04  0.202E-04
  11.021  0.296E-03  0.741E-04  0.741E-04  0.741E-04  0.741E-04
  11.023  0.905E-02  0.226E-02  0.226E-02  0.226E-02  0.226E-02
  11.025  0.545E-01  0.136E-01  0.136E-01  0.136E-01  0.136E-01
  11.027  0.513E-01  0.128E-01  0.128E-01  0.128E-01  0.128E-01
  11.029  0.835E-01  0.209E-01  0.209E-01  0.209E-01  0.209E-01
  11.031  0.502E+00  0.126E+00  0.126E+00  0.126E+00  0.126E+00
  11.033  0.544E+00  0.136E+00  0.136E+00  0.136E+00  0.136E+00
  11.035  0.184E+00  0.461E-01  0.461E-01  0.461E-01  0.461E-01
  11.037  0.108E+00  0.269E-01  0.269E-01  0.269E-01  0.269E-01
  11.039  0.594E-01  0.148E-01  0.148E-01  0.148E-01  0.148E-01
  11.041  0.107E-01  0.267E-02  0.267E-02  0.267E-02  0.267E-02
  11.043  0.141E-01  0.353E-02  0.353E-02  0.353E-02  0.353E-02
  11.045  0.539E-01  0.135E-01  0.135E-01  0.135E-01  0.135E-01
  11.047  0.492E-01  0.123E-01  0.123E-01  0.123E-01  0.123E-01
  11.049  0.709E-02  0.177E-02  0.177E-02  0.177E-02  0.177E-02
  11.051  0.446E-02  0.111E-02  0.111E-02  0.111E-02  0.111E-02
  11.053  0.230E-01  0.574E-02  0.574E-02  0.574E-02  0.574E-02
  11.055  0.314E+00  0.784E-01  0.784E-01  0.784E-01  0.784E-01
  11.057  0.655E+00  0.164E+00  0.164E+00  0.164E+00  0.164E+00
  11.059  0.217E+00  0.542E-01  0.542E-01  0.542E-01  0.542E-01
  11.061  0.353E+00  0.882E-01  0.882E-01  0.882E-01  0.882E-01
  11.063  0.731E+00  0.183E+00  0.183E+00  0.183E+00  0.183E+00
  11.065  0.222E+00  0.555E-01  0.555E-01  0.555E-01  0.555E-01
  11.067  0.540E-01  0.135E-01  0.135E-01  0.135E-01  0.135E-01
  11.069  0.195E+00  0.488E-01  0.488E-01  0.488E-01  0.488E-01
  11.071  0.481E+00  0.120E+00  0.120E+00  0.120E+00  0.120E+00
  11.073  0.595E+00  0.149E+00  0.149E+00  0.149E+00  0.149E+00
  11.075  0.160E+00  0.401E-01  0.401E-01  0.401E-01  0.401E-01
  11.077  0.609E+00  0.152E+00  0.152E+00  0.152E+00  0.152E+00
  11.079  0.134E+01  0.335E+00  0.335E+00  0.335E+00  0.335E+00
  11.081  0.474E+00  0.119E+00  0.119E+00  0.119E+00  0.119E+00
  11.083  0.746E-01  0.186E-01  0.186E-01  0.186E-01  0.186E-01
  11.085  0.401E-01  0.100E-01  0.100E-01  0.100E-01  0.100E-01
  11.087  0.453E-01  0.113E-01  0.113E-01  0.113E-01  0.113E-01
  11.089  0.147E+00  0.368E-01  0.368E-01  0.368E-01  0.368E-01
  11.091  0.189E+00  0.474E-01  0.474E-01  0.474E-01  0.474E-01
  11.093  0.107E+00  0.267E-01  0.267E-01  0.267E-01  0.267E-01
  11.095  0.318E-01  0.794E-02  0.794E-02  0.794E-02  0.794E-02
  11.097  0.677E-01  0.169E-01  0.169E-01  0.169E-01  0.169E-01
  11.099  0.551E-01  0.138E-01  0.138E-01  0.138E-01  0.138E-01
  11.101  0.622E-02  0.156E-02  0.156E-02  0.156E-02  0.156E-02
  11.103  0.274E-02  0.684E-03  0.684E-03  0.684E-03  0.684E-03
  11.105  0.114E-01  0.286E-02  0.286E-02  0.286E-02  0.286E-02
  11.107  0.719E-02  0.180E-02  0.180E-02  0.180E-02  0.180E-02
  11.109  0.153E-01  0.382E-02  0.382E-02  0.382E-02  0.382E-02
  11.111  0.593E-01  0.148E-01  0.148E-01  0.148E-01  0.148E-01
  11.113  0.378E-01  0.944E-02  0.944E-02  0.944E-02  0.944E-02
  11.115  0.601E-01  0.150E-01  0.150E-01  0.150E-01  0.150E-01
  11.117  0.351E+00  0.878E-01  0.878E-01  0.878E-01  0.878E-01
  11.119  0.496E+00  0.124E+00  0.124E+00  0.124E+00  0.124E+00
  11.121  0.100E+00  0.250E-01  0.250E-01  0.250E-01  0.250E-01
  11.123  0.507E-02  0.127E-02  0.127E-02  0.127E-02  0.127E-02
  11.125  0.407E-01  0.102E-01  0.102E-01  0.102E-01  0.102E-01
  11.127  0.960E-01  0.240E-01  0.240E-01  0.240E-01  0.240E-01
  11.129  0.315E-01  0.786E-02  0.786E-02  0.786E-02  0.786E-02
  11.131  0.187E-01  0.468E-02  0.468E-02  0.468E-02  0.468E-02
  11.133  0.733E-01  0.183E-01  0.183E-01  0.183E-01  0.183E-01
  11.135  0.666E-01  0.167E-01  0.167E-01  0.167E-01  0.167E-01
  11.137  0.486E-01  0.121E-01  0.121E-01  0.121E-01  0.121E-01
  11.139  0.380E+00  0.949E-01  0.949E-01  0.949E-01  0.949E-01
  11.141  0.580E+00  0.145E+00  0.145E+00  0.145E+00  0.145E+00
  11.143  0.267E+00  0.669E-01  0.669E-01  0.669E-01  0.669E-01
  11.145  0.199E+00  0.497E-01  0.497E-01  0.497E-01  0.497E-01
  11.147  0.131E+00  0.328E-01  0.328E-01  0.328E-01  0.328E-01
  11.149  0.551E-01  0.138E-01  0.138E-01  0.138E-01  0.138E-01
  11.151  0.429E-01  0.107E-01  0.107E-01  0.107E-01  0.107E-01
  11.153  0.101E-01  0.253E-02  0.253E-02  0.253E-02  0.253E-02
  11.155  0.123E-01  0.308E-02  0.308E-02  0.308E-02  0.308E-02
  11.157  0.613E-01  0.153E-01  0.153E-01  0.153E-01  0.153E-01
  11.159  0.749E-01  0.187E-01  0.187E-01  0.187E-01  0.187E-01
  11.161  0.324E-01  0.810E-02  0.810E-02  0.810E-02  0.810E-02
  11.163  0.995E-01  0.249E-01  0.249E-01  0.249E-01  0.249E-01
  11.165  0.403E+00  0.101E+00  0.101E+00  0.101E+00  0.101E+00
  11.167  0.617E+00  0.154E+00  0.154E+00  0.154E+00  0.154E+00
  11.169  0.140E+00  0.349E-01  0.349E-01  0.349E-01  0.349E-01
  11.171  0.702E-02  0.176E-02  0.176E-02  0.176E-02  0.176E-02
  11.173  0.219E-02  0.547E-03  0.547E-03  0.547E-03  0.547E-03
  11.175  0.369E-03  0.923E-04  0.923E-04  0.923E-04  0.923E-04
  11.177  0.280E-02  0.701E-03  0.701E-03  0.701E-03  0.701E-03
  11.179  0.157E-01  0.394E-02  0.394E-02  0.394E-02  0.394E-02
  11.181  0.598E-01  0.150E-01  0.150E-01  0.150E-01  0.150E-01
  11.183  0.962E-01  0.241E-01  0.241E-01  0.241E-01  0.241E-01
  11.185  0.989E-01  0.247E-01  0.247E-01  0.247E-01  0.247E-01
  11.187  0.411E+00  0.103E+00  0.103E+00  0.103E+00  0.103E+00
  11.189  0.611E+00  0.153E+00  0.153E+00  0.153E+00  0.153E+00
  11.191  0.139E+00  0.349E-01  0.349E-01  0.349E-01  0.349E-01
  11.193  0.851E-02  0.213E-02  0.213E-02  0.213E-02  0.213E-02
  11.195  0.521E-01  0.130E-01  0.130E-01  0.130E-01  0.130E-01
  11.197  0.119E+00  0.298E-01  0.298E-01  0.298E-01  0.298E-01
  11.199  0.105E+00  0.262E-01  0.262E-01  0.262E-01  0.262E-01
  11.201  0.638E-01  0.159E-01  0.159E-01  0.159E-01  0.159E-01
  11.203  0.607E-01  0.152E-01  0.152E-01  0.152E-01  0.152E-01
  11.205  0.483E+00  0.121E+00  0.121E+00  0.121E+00  0.121E+00
  11.207  0.106E+01  0.266E+00  0.266E+00  0.266E+00  0.266E+00
  11.209  0.806E+00  0.202E+00  0.202E+00  0.202E+00  0.202E+00
  11.211  0.725E+00  0.181E+00  0.181E+00  0.181E+00  0.181E+00
  11.213  0.204E+00  0.511E-01  0.511E-01  0.511E-01  0.511E-01
  11.215  0.221E-01  0.552E-02  0.552E-02  0.552E-02  0.552E-02
  11.217  0.352E-02  0.879E-03  0.879E-03  0.879E-03  0.879E-03
  11.219  0.281E-01  0.702E-02  0.702E-02  0.702E-02  0.702E-02
  11.221  0.358E+00  0.895E-01  0.895E-01  0.895E-01  0.895E-01
  11.223  0.623E+00  0.156E+00  0.156E+00  0.156E+00  0.156E+00
  11.225  0.147E+00  0.366E-01  0.366E-01  0.366E-01  0.366E-01
  11.227  0.467E-02  0.117E-02  0.117E-02  0.117E-02  0.117E-02
  11.229  0.206E-04  0.515E-05  0.515E-05  0.515E-05  0.515E-05
  11.231  0.187E-03  0.467E-04  0.467E-04  0.467E-04  0.467E-04
  11.233  0.978E-02  0.244E-02  0.244E-02  0.244E-02  0.244E-02
  11.235  0.702E-01  0.175E-01  0.175E-01  0.175E-01  0.175E-01
  11.237  0.704E-01  0.176E-01  0.176E-01  0.176E-01  0.176E-01
  11.239  0.109E-01  0.272E-02  0.272E-02  0.272E-02  0.272E-02
  11.241  0.518E-03  0.130E-03  0.130E-03  0.130E-03  0.130E-03
  11.243  0.193E-02  0.482E-03  0.482E-03  0.482E-03  0.482E-03
  11.245  0.103E-01  0.257E-02  0.257E-02  0.257E-02  0.257E-02
  11.247  0.582E-01  0.145E-01  0.145E-01  0.145E-01  0.145E-01
  11.249  0.111E+00  0.278E-01  0.278E-01  0.278E-01  0.278E-01
  11.251  0.194E+00  0.486E-01  0.486E-01  0.486E-01  0.486E-01
  11.253  0.606E+00  0.152E+00  0.152E+00  0.152E+00  0.152E+00
  11.255  0.471E+00  0.118E+00  0.118E+00  0.118E+00  0.118E+00
  11.257  0.101E+00  0.253E-01  0.253E-01  0.253E-01  0.253E-01
  11.259  0.466E-01  0.117E-01  0.117E-01  0.117E-01  0.117E-01
  11.261  0.689E-01  0.172E-01  0.172E-01  0.172E-01  0.172E-01
  11.263  0.176E-01  0.441E-02  0.441E-02  0.441E-02  0.441E-02
  11.265  0.613E-03  0.153E-03  0.153E-03  0.153E-03  0.153E-03
  11.267  0.475E-04  0.119E-04  0.119E-04  0.119E-04  0.119E-04
  11.269  0.576E-02  0.144E-02  0.144E-02  0.144E-02  0.144E-02
  11.271  0.141E+00  0.352E-01  0.352E-01  0.352E-01  0.352E-01
  11.273  0.524E+00  0.131E+00  0.131E+00  0.131E+00  0.131E+00
  11.275  0.272E+00  0.680E-01  0.680E-01  0.680E-01  0.680E-01
  11.277  0.193E-01  0.482E-02  0.482E-02  0.482E-02  0.482E-02
  11.279  0.336E-03  0.839E-04  0.839E-04  0.839E-04  0.839E-04
  11.281  0.734E-02  0.183E-02  0.183E-02  0.183E-02  0.183E-02
  11.283  0.512E-01  0.128E-01  0.128E-01  0.128E-01  0.128E-01
  11.285  0.833E-01  0.208E-01  0.208E-01  0.208E-01  0.208E-01
  11.287  0.767E-01  0.192E-01  0.192E-01  0.192E-01  0.192E-01
  11.289  0.176E-01  0.440E-02  0.440E-02  0.440E-02  0.440E-02
  11.291  0.332E-02  0.829E-03  0.829E-03  0.829E-03  0.829E-03
  11.293  0.631E-01  0.158E-01  0.158E-01  0.158E-01  0.158E-01
  11.295  0.409E+00  0.102E+00  0.102E+00  0.102E+00  0.102E+00
  11.297  0.394E+00  0.985E-01  0.985E-01  0.985E-01  0.985E-01
  11.299  0.146E+00  0.365E-01  0.365E-01  0.365E-01  0.365E-01
  11.301  0.102E+00  0.255E-01  0.255E-01  0.255E-01  0.255E-01
  11.303  0.934E-01  0.234E-01  0.234E-01  0.234E-01  0.234E-01
  11.305  0.589E-01  0.147E-01  0.147E-01  0.147E-01  0.147E-01
  11.307  0.164E-01  0.409E-02  0.409E-02  0.409E-02  0.409E-02
  11.309  0.366E-01  0.915E-02  0.915E-02  0.915E-02  0.915E-02
  11.311  0.468E-01  0.117E-01  0.117E-01  0.117E-01  0.117E-01
  11.313  0.268E+00  0.670E-01  0.670E-01  0.670E-01  0.670E-01
  11.315  0.612E+00  0.153E+00  0.153E+00  0.153E+00  0.153E+00
  11.317  0.194E+00  0.485E-01  0.485E-01  0.485E-01  0.485E-01
  11.319  0.834E-02  0.209E-02  0.209E-02  0.209E-02  0.209E-02
  11.321  0.487E-04  0.122E-04  0.122E-04  0.122E-04  0.122E-04
  11.323  0.387E-07  0.967E-08  0.967E-08  0.967E-08  0.967E-08
  11.325  0.543E-08  0.136E-08  0.136E-08  0.136E-08  0.136E-08
  11.327  0.284E-05  0.709E-06  0.709E-06  0.709E-06  0.709E-06
  11.329  0.258E-03  0.644E-04  0.644E-04  0.644E-04  0.644E-04
  11.331  0.653E-02  0.163E-02  0.163E-02  0.163E-02  0.163E-02
  11.333  0.475E-01  0.119E-01  0.119E-01  0.119E-01  0.119E-01
  11.335  0.953E-01  0.238E-01  0.238E-01  0.238E-01  0.238E-01
  11.337  0.475E+00  0.119E+00  0.119E+00  0.119E+00  0.119E+00
  11.339  0.998E+00  0.249E+00  0.249E+00  0.249E+00  0.249E+00
  11.341  0.368E+00  0.919E-01  0.919E-01  0.919E-01  0.919E-01
  11.343  0.514E-01  0.129E-01  0.129E-01  0.129E-01  0.129E-01
  11.345  0.992E-01  0.248E-01  0.248E-01  0.248E-01  0.248E-01
  11.347  0.111E+00  0.278E-01  0.278E-01  0.278E-01  0.278E-01
  11.349  0.106E+00  0.264E-01  0.264E-01  0.264E-01  0.264E-01
  11.351  0.850E-01  0.212E-01  0.212E-01  0.212E-01  0.212E-01
  11.353  0.591E-01  0.148E-01  0.148E-01  0.148E-01  0.148E-01
  11.355  0.344E+00  0.860E-01  0.860E-01  0.860E-01  0.860E-01
  11.357  0.672E+00  0.168E+00  0.168E+00  0.168E+00  0.168E+00
  11.359  0.204E+00  0.509E-01  0.509E-01  0.509E-01  0.509E-01
  11.361  0.524E-01  0.131E-01  0.131E-01  0.131E-01  0.131E-01
  11.363  0.363E+00  0.908E-01  0.908E-01  0.908E-01  0.908E-01
  11.365  0.596E+00  0.149E+00  0.149E+00  0.149E+00  0.149E+00
  11.367  0.173E+00  0.433E-01  0.433E-01  0.433E-01  0.433E-01
  11.369  0.370E-01  0.924E-02  0.924E-02  0.924E-02  0.924E-02
  11.371  0.748E-02  0.187E-02  0.187E-02  0.187E-02  0.187E-02
  11.373  0.506E-03  0.126E-03  0.126E-03  0.126E-03  0.126E-03
  11.375  0.114E-02  0.286E-03  0.286E-03  0.286E-03  0.286E-03
  11.377  0.219E-01  0.548E-02  0.548E-02  0.548E-02  0.548E-02
  11.379  0.575E-01  0.144E-01  0.144E-01  0.144E-01  0.144E-01
  11.381  0.325E-01  0.812E-02  0.812E-02  0.812E-02  0.812E-02
  11.383  0.658E-01  0.164E-01  0.164E-01  0.164E-01  0.164E-01
  11.385  0.220E+00  0.550E-01  0.550E-01  0.550E-01  0.550E-01
  11.387  0.482E+00  0.120E+00  0.120E+00  0.120E+00  0.120E+00
  11.389  0.170E+00  0.424E-01  0.424E-01  0.424E-01  0.424E-01
  11.391  0.824E-02  0.206E-02  0.206E-02  0.206E-02  0.206E-02
  11.393  0.346E-02  0.865E-03  0.865E-03  0.865E-03  0.865E-03
  11.395  0.484E-01  0.121E-01  0.121E-01  0.121E-01  0.121E-01
  11.397  0.109E+00  0.271E-01  0.271E-01  0.271E-01  0.271E-01
  11.399  0.155E+00  0.386E-01  0.386E-01  0.386E-01  0.386E-01
  11.401  0.450E+00  0.113E+00  0.113E+00  0.113E+00  0.113E+00
  11.403  0.338E+00  0.845E-01  0.845E-01  0.845E-01  0.845E-01
  11.405  0.615E-01  0.154E-01  0.154E-01  0.154E-01  0.154E-01
  11.407  0.290E-01  0.724E-02  0.724E-02  0.724E-02  0.724E-02
  11.409  0.504E-02  0.126E-02  0.126E-02  0.126E-02  0.126E-02
  11.411  0.287E-03  0.717E-04  0.717E-04  0.717E-04  0.717E-04
  11.413  0.288E-03  0.721E-04  0.721E-04  0.721E-04  0.721E-04
  11.415  0.105E-03  0.263E-04  0.263E-04  0.263E-04  0.263E-04
  11.417  0.233E-02  0.584E-03  0.584E-03  0.584E-03  0.584E-03
  11.419  0.400E-01  0.100E-01  0.100E-01  0.100E-01  0.100E-01
  11.421  0.270E+00  0.675E-01  0.675E-01  0.675E-01  0.675E-01
  11.423  0.543E+00  0.136E+00  0.136E+00  0.136E+00  0.136E+00
  11.425  0.172E+00  0.431E-01  0.431E-01  0.431E-01  0.431E-01
  11.427  0.284E-01  0.711E-02  0.711E-02  0.711E-02  0.711E-02
  11.429  0.836E-01  0.209E-01  0.209E-01  0.209E-01  0.209E-01
  11.431  0.147E+00  0.366E-01  0.366E-01  0.366E-01  0.366E-01
  11.433  0.498E+00  0.124E+00  0.124E+00  0.124E+00  0.124E+00
  11.435  0.392E+00  0.979E-01  0.979E-01  0.979E-01  0.979E-01
  11.437  0.436E-01  0.109E-01  0.109E-01  0.109E-01  0.109E-01
  11.439  0.121E-01  0.303E-02  0.303E-02  0.303E-02  0.303E-02
  11.441  0.477E-01  0.119E-01  0.119E-01  0.119E-01  0.119E-01
  11.443  0.919E-01  0.230E-01  0.230E-01  0.230E-01  0.230E-01
  11.445  0.495E-01  0.124E-01  0.124E-01  0.124E-01  0.124E-01
  11.447  0.513E-01  0.128E-01  0.128E-01  0.128E-01  0.128E-01
  11.449  0.397E-01  0.993E-02  0.993E-02  0.993E-02  0.993E-02
  11.451  0.144E-01  0.361E-02  0.361E-02  0.361E-02  0.361E-02
  11.453  0.162E-01  0.406E-02  0.406E-02  0.406E-02  0.406E-02
  11.455  0.365E-01  0.912E-02  0.912E-02  0.912E-02  0.912E-02
  11.457  0.271E-01  0.677E-02  0.677E-02  0.677E-02  0.677E-02
  11.459  0.439E-01  0.110E-01  0.110E-01  0.110E-01  0.110E-01
  11.461  0.117E+00  0.293E-01  0.293E-01  0.293E-01  0.293E-01
  11.463  0.378E+00  0.946E-01  0.946E-01  0.946E-01  0.946E-01
  11.465  0.187E+00  0.467E-01  0.467E-01  0.467E-01  0.467E-01
  11.467  0.179E-01  0.448E-02  0.448E-02  0.448E-02  0.448E-02
  11.469  0.158E-01  0.395E-02  0.395E-02  0.395E-02  0.395E-02
  11.471  0.609E-02  0.152E-02  0.152E-02  0.152E-02  0.152E-02
  11.473  0.334E-03  0.836E-04  0.836E-04  0.836E-04  0.836E-04
  11.475  0.316E-02  0.790E-03  0.790E-03  0.790E-03  0.790E-03
  11.477  0.102E+00  0.256E-01  0.256E-01  0.256E-01  0.256E-01
  11.479  0.454E+00  0.114E+00  0.114E+00  0.114E+00  0.114E+00
  11.481  0.278E+00  0.696E-01  0.696E-01  0.696E-01  0.696E-01
  11.483  0.574E-01  0.144E-01  0.144E-01  0.144E-01  0.144E-01
  11.485  0.105E+00  0.263E-01  0.263E-01  0.263E-01  0.263E-01
  11.487  0.959E-01  0.240E-01  0.240E-01  0.240E-01  0.240E-01
  11.489  0.354E-01  0.884E-02  0.884E-02  0.884E-02  0.884E-02
  11.491  0.311E-01  0.779E-02  0.779E-02  0.779E-02  0.779E-02
  11.493  0.611E-01  0.153E-01  0.153E-01  0.153E-01  0.153E-01
  11.495  0.836E-01  0.209E-01  0.209E-01  0.209E-01  0.209E-01
  11.497  0.685E-01  0.171E-01  0.171E-01  0.171E-01  0.171E-01
  11.499  0.468E+00  0.117E+00  0.117E+00  0.117E+00  0.117E+00
  11.501  0.743E+00  0.186E+00  0.186E+00  0.186E+00  0.186E+00
  11.503  0.102E+01  0.256E+00  0.256E+00  0.256E+00  0.256E+00
  11.505  0.767E+00  0.192E+00  0.192E+00  0.192E+00  0.192E+00
  11.507  0.995E-01  0.249E-01  0.249E-01  0.249E-01  0.249E-01
  11.509  0.331E-01  0.827E-02  0.827E-02  0.827E-02  0.827E-02
  11.511  0.261E-01  0.652E-02  0.652E-02  0.652E-02  0.652E-02
  11.513  0.293E-02  0.733E-03  0.733E-03  0.733E-03  0.733E-03
  11.515  0.520E-04  0.130E-04  0.130E-04  0.130E-04  0.130E-04
  11.517  0.165E-02  0.412E-03  0.412E-03  0.412E-03  0.412E-03
  11.519  0.604E-01  0.151E-01  0.151E-01  0.151E-01  0.151E-01
  11.521  0.305E+00  0.762E-01  0.762E-01  0.762E-01  0.762E-01
  11.523  0.222E+00  0.555E-01  0.555E-01  0.555E-01  0.555E-01
  11.525  0.106E+00  0.264E-01  0.264E-01  0.264E-01  0.264E-01
  11.527  0.977E-01  0.244E-01  0.244E-01  0.244E-01  0.244E-01
  11.529  0.349E-01  0.873E-02  0.873E-02  0.873E-02  0.873E-02
  11.531  0.173E-01  0.434E-02  0.434E-02  0.434E-02  0.434E-02
  11.533  0.281E-02  0.703E-03  0.703E-03  0.703E-03  0.703E-03
  11.535  0.711E-02  0.178E-02  0.178E-02  0.178E-02  0.178E-02
  11.537  0.400E-01  0.100E-01  0.100E-01  0.100E-01  0.100E-01
  11.539  0.670E-01  0.168E-01  0.168E-01  0.168E-01  0.168E-01
  11.541  0.190E+00  0.475E-01  0.475E-01  0.475E-01  0.475E-01
  11.543  0.526E+00  0.132E+00  0.132E+00  0.132E+00  0.132E+00
  11.545  0.234E+00  0.586E-01  0.586E-01  0.586E-01  0.586E-01
  11.547  0.363E-01  0.907E-02  0.907E-02  0.907E-02  0.907E-02
  11.549  0.283E-01  0.708E-02  0.708E-02  0.708E-02  0.708E-02
  11.551  0.363E-01  0.908E-02  0.908E-02  0.908E-02  0.908E-02
  11.553  0.685E-01  0.171E-01  0.171E-01  0.171E-01  0.171E-01
  11.555  0.426E-01  0.107E-01  0.107E-01  0.107E-01  0.107E-01
  11.557  0.144E-01  0.359E-02  0.359E-02  0.359E-02  0.359E-02
  11.559  0.238E-02  0.595E-03  0.595E-03  0.595E-03  0.595E-03
  11.561  0.833E-02  0.208E-02  0.208E-02  0.208E-02  0.208E-02
  11.563  0.181E-01  0.452E-02  0.452E-02  0.452E-02  0.452E-02
  11.565  0.105E-01  0.262E-02  0.262E-02  0.262E-02  0.262E-02
  11.567  0.332E-02  0.831E-03  0.831E-03  0.831E-03  0.831E-03
  11.569  0.137E-01  0.342E-02  0.342E-02  0.342E-02  0.342E-02
  11.571  0.103E+00  0.257E-01  0.257E-01  0.257E-01  0.257E-01
  11.573  0.463E+00  0.116E+00  0.116E+00  0.116E+00  0.116E+00
  11.575  0.506E+00  0.127E+00  0.127E+00  0.127E+00  0.127E+00
  11.577  0.245E+00  0.611E-01  0.611E-01  0.611E-01  0.611E-01
  11.579  0.339E+00  0.848E-01  0.848E-01  0.848E-01  0.848E-01
  11.581  0.428E+00  0.107E+00  0.107E+00  0.107E+00  0.107E+00
  11.583  0.127E+00  0.318E-01  0.318E-01  0.318E-01  0.318E-01
  11.585  0.477E-01  0.119E-01  0.119E-01  0.119E-01  0.119E-01
  11.587  0.590E-01  0.147E-01  0.147E-01  0.147E-01  0.147E-01
  11.589  0.259E-01  0.647E-02  0.647E-02  0.647E-02  0.647E-02
  11.591  0.111E-01  0.277E-02  0.277E-02  0.277E-02  0.277E-02
  11.593  0.137E-01  0.342E-02  0.342E-02  0.342E-02  0.342E-02
  11.595  0.581E-02  0.145E-02  0.145E-02  0.145E-02  0.145E-02
  11.597  0.134E-02  0.336E-03  0.336E-03  0.336E-03  0.336E-03
  11.599  0.731E-03  0.183E-03  0.183E-03  0.183E-03  0.183E-03
  11.601  0.689E-03  0.172E-03  0.172E-03  0.172E-03  0.172E-03
  11.603  0.491E-02  0.123E-02  0.123E-02  0.123E-02  0.123E-02
  11.605  0.238E-01  0.595E-02  0.595E-02  0.595E-02  0.595E-02
  11.607  0.244E-01  0.611E-02  0.611E-02  0.611E-02  0.611E-02
  11.609  0.127E-01  0.318E-02  0.318E-02  0.318E-02  0.318E-02
  11.611  0.139E-01  0.347E-02  0.347E-02  0.347E-02  0.347E-02
  11.613  0.189E-01  0.472E-02  0.472E-02  0.472E-02  0.472E-02
  11.615  0.235E-01  0.588E-02  0.588E-02  0.588E-02  0.588E-02
  11.617  0.209E-01  0.524E-02  0.524E-02  0.524E-02  0.524E-02
  11.619  0.536E-02  0.134E-02  0.134E-02  0.134E-02  0.134E-02
  11.621  0.151E-01  0.378E-02  0.378E-02  0.378E-02  0.378E-02
  11.623  0.149E+00  0.373E-01  0.373E-01  0.373E-01  0.373E-01
  11.625  0.268E+00  0.671E-01  0.671E-01  0.671E-01  0.671E-01
  11.627  0.715E-01  0.179E-01  0.179E-01  0.179E-01  0.179E-01
