# E (eV)   ldos(E)   pdos(E)_1   pdos(E)_2   
   7.605  0.115E-03  0.573E-04  0.573E-04
   7.607  0.712E-02  0.356E-02  0.356E-02
   7.609  0.599E-01  0.300E-01  0.300E-01
   7.611  0.683E-01  0.341E-01  0.341E-01
   7.613  0.106E-01  0.528E-02  0.528E-02
   7.615  0.242E-03  0.121E-03  0.121E-03
   7.617  0.600E-05  0.300E-05  0.300E-05
   7.619  0.800E-04  0.400E-04  0.400E-04
   7.621  0.278E-03  0.139E-03  0.139E-03
   7.623  0.130E-03  0.652E-04  0.652E-04
   7.625  0.829E-05  0.414E-05  0.414E-05
   7.627  0.713E-07  0.356E-07  0.356E-07
   7.629  0.830E-10  0.415E-10  0.415E-10
   7.631  0.131E-13  0.654E-14  0.654E-14
   7.633  0.279E-18  0.139E-18  0.139E-18
   7.635  0.275E-17  0.138E-17  0.138E-17
   7.637  0.436E-13  0.218E-13  0.218E-13
   7.639  0.108E-09  0.538E-10  0.538E-10
   7.641  0.450E-07  0.225E-07  0.225E-07
   7.643  0.324E-05  0.162E-05  0.162E-05
   7.645  0.373E-04  0.186E-04  0.186E-04
   7.647  0.630E-04  0.315E-04  0.315E-04
   7.649  0.190E-04  0.950E-05  0.950E-05
   7.651  0.916E-04  0.458E-04  0.458E-04
   7.653  0.277E-03  0.138E-03  0.138E-03
   7.655  0.335E-03  0.167E-03  0.167E-03
   7.657  0.111E-01  0.553E-02  0.553E-02
   7.659  0.746E-01  0.373E-01  0.373E-01
   7.661  0.682E-01  0.341E-01  0.341E-01
   7.663  0.879E-02  0.440E-02  0.440E-02
   7.665  0.143E-01  0.713E-02  0.713E-02
   7.667  0.770E-01  0.385E-01  0.385E-01
   7.669  0.569E-01  0.284E-01  0.284E-01
   7.671  0.568E-02  0.284E-02  0.284E-02
   7.673  0.770E-04  0.385E-04  0.385E-04
   7.675  0.117E-04  0.583E-05  0.583E-05
   7.677  0.931E-04  0.465E-04  0.465E-04
   7.679  0.105E-03  0.527E-04  0.527E-04
   7.681  0.508E-04  0.254E-04  0.254E-04
   7.683  0.550E-03  0.275E-03  0.275E-03
   7.685  0.143E-01  0.714E-02  0.714E-02
   7.687  0.812E-01  0.406E-01  0.406E-01
   7.689  0.633E-01  0.316E-01  0.316E-01
   7.691  0.668E-02  0.334E-02  0.334E-02
   7.693  0.954E-04  0.477E-04  0.477E-04
   7.695  0.184E-06  0.921E-07  0.921E-07
   7.697  0.482E-10  0.241E-10  0.241E-10
   7.699  0.653E-13  0.326E-13  0.326E-13
   7.701  0.265E-09  0.133E-09  0.133E-09
   7.703  0.150E-06  0.751E-07  0.751E-07
   7.705  0.116E-04  0.579E-05  0.579E-05
   7.707  0.121E-03  0.606E-04  0.606E-04
   7.709  0.176E-03  0.878E-04  0.878E-04
   7.711  0.112E-03  0.558E-04  0.558E-04
   7.713  0.247E-03  0.123E-03  0.123E-03
   7.715  0.105E-03  0.523E-04  0.523E-04
   7.717  0.603E-05  0.301E-05  0.301E-05
   7.719  0.470E-07  0.235E-07  0.235E-07
   7.721  0.513E-09  0.257E-09  0.257E-09
   7.723  0.118E-05  0.592E-06  0.592E-06
   7.725  0.419E-03  0.210E-03  0.210E-03
   7.727  0.208E-01  0.104E-01  0.104E-01
   7.729  0.144E+00  0.722E-01  0.722E-01
   7.731  0.142E+00  0.708E-01  0.708E-01
   7.733  0.195E-01  0.977E-02  0.977E-02
   7.735  0.707E-03  0.354E-03  0.354E-03
   7.737  0.338E-02  0.169E-02  0.169E-02
   7.739  0.894E-02  0.447E-02  0.447E-02
   7.741  0.103E-01  0.513E-02  0.513E-02
   7.743  0.956E-02  0.478E-02  0.478E-02
   7.745  0.499E-02  0.250E-02  0.250E-02
   7.747  0.522E-02  0.261E-02  0.261E-02
   7.749  0.640E-02  0.320E-02  0.320E-02
   7.751  0.381E-02  0.190E-02  0.190E-02
   7.753  0.122E-02  0.612E-03  0.612E-03
   7.755  0.478E-02  0.239E-02  0.239E-02
   7.757  0.542E-02  0.271E-02  0.271E-02
   7.759  0.507E-02  0.253E-02  0.253E-02
   7.761  0.378E-02  0.189E-02  0.189E-02
   7.763  0.786E-03  0.393E-03  0.393E-03
   7.765  0.261E-02  0.131E-02  0.131E-02
   7.767  0.718E-02  0.359E-02  0.359E-02
   7.769  0.288E-02  0.144E-02  0.144E-02
   7.771  0.105E-02  0.525E-03  0.525E-03
   7.773  0.557E-02  0.278E-02  0.278E-02
   7.775  0.469E-02  0.235E-02  0.235E-02
   7.777  0.610E-03  0.305E-03  0.305E-03
   7.779  0.210E-02  0.105E-02  0.105E-02
   7.781  0.792E-02  0.396E-02  0.396E-02
   7.783  0.409E-02  0.204E-02  0.204E-02
   7.785  0.497E-03  0.249E-03  0.249E-03
   7.787  0.296E-03  0.148E-03  0.148E-03
   7.789  0.480E-03  0.240E-03  0.240E-03
   7.791  0.465E-02  0.232E-02  0.232E-02
   7.793  0.227E-01  0.114E-01  0.114E-01
   7.795  0.131E+00  0.656E-01  0.656E-01
   7.797  0.162E+00  0.810E-01  0.810E-01
   7.799  0.365E-01  0.183E-01  0.183E-01
   7.801  0.712E-02  0.356E-02  0.356E-02
   7.803  0.507E-01  0.254E-01  0.254E-01
   7.805  0.915E-01  0.458E-01  0.458E-01
   7.807  0.226E-01  0.113E-01  0.113E-01
   7.809  0.826E-03  0.413E-03  0.413E-03
   7.811  0.280E-04  0.140E-04  0.140E-04
   7.813  0.102E-02  0.512E-03  0.512E-03
   7.815  0.758E-02  0.379E-02  0.379E-02
   7.817  0.983E-02  0.492E-02  0.492E-02
   7.819  0.109E-01  0.547E-02  0.547E-02
   7.821  0.568E-02  0.284E-02  0.284E-02
   7.823  0.642E-03  0.321E-03  0.321E-03
   7.825  0.104E-03  0.522E-04  0.522E-04
   7.827  0.779E-05  0.390E-05  0.390E-05
   7.829  0.966E-07  0.483E-07  0.483E-07
   7.831  0.174E-06  0.869E-07  0.869E-07
   7.833  0.108E-04  0.539E-05  0.539E-05
   7.835  0.956E-04  0.478E-04  0.478E-04
   7.837  0.124E-03  0.618E-04  0.618E-04
   7.839  0.172E-03  0.858E-04  0.858E-04
   7.841  0.458E-02  0.229E-02  0.229E-02
   7.843  0.206E-01  0.103E-01  0.103E-01
   7.845  0.136E-01  0.680E-02  0.680E-02
   7.847  0.135E-02  0.677E-03  0.677E-03
   7.849  0.270E-04  0.135E-04  0.135E-04
   7.851  0.166E-04  0.828E-05  0.828E-05
   7.853  0.100E-04  0.500E-05  0.500E-05
   7.855  0.824E-06  0.412E-06  0.412E-06
   7.857  0.946E-08  0.473E-08  0.473E-08
   7.859  0.704E-06  0.352E-06  0.352E-06
   7.861  0.249E-03  0.125E-03  0.125E-03
   7.863  0.119E-01  0.596E-02  0.596E-02
   7.865  0.773E-01  0.386E-01  0.386E-01
   7.867  0.686E-01  0.343E-01  0.343E-01
   7.869  0.165E-01  0.825E-02  0.825E-02
   7.871  0.116E-01  0.581E-02  0.581E-02
   7.873  0.393E-02  0.196E-02  0.196E-02
   7.875  0.107E-01  0.537E-02  0.537E-02
   7.877  0.847E-02  0.424E-02  0.424E-02
   7.879  0.428E-02  0.214E-02  0.214E-02
   7.881  0.479E-01  0.240E-01  0.240E-01
   7.883  0.920E-01  0.460E-01  0.460E-01
   7.885  0.239E-01  0.119E-01  0.119E-01
   7.887  0.840E-03  0.420E-03  0.420E-03
   7.889  0.400E-05  0.200E-05  0.200E-05
   7.891  0.258E-08  0.129E-08  0.129E-08
   7.893  0.141E-07  0.704E-08  0.704E-08
   7.895  0.881E-05  0.441E-05  0.441E-05
   7.897  0.746E-03  0.373E-03  0.373E-03
   7.899  0.855E-02  0.427E-02  0.427E-02
   7.901  0.133E-01  0.665E-02  0.665E-02
   7.903  0.636E-02  0.318E-02  0.318E-02
   7.905  0.485E-01  0.243E-01  0.243E-01
   7.907  0.890E-01  0.445E-01  0.445E-01
   7.909  0.262E-01  0.131E-01  0.131E-01
   7.911  0.142E-01  0.708E-02  0.708E-02
   7.913  0.588E-02  0.294E-02  0.294E-02
   7.915  0.348E-03  0.174E-03  0.174E-03
   7.917  0.278E-05  0.139E-05  0.139E-05
   7.919  0.302E-08  0.151E-08  0.151E-08
   7.921  0.443E-12  0.221E-12  0.221E-12
   7.923  0.820E-14  0.410E-14  0.410E-14
   7.925  0.126E-09  0.628E-10  0.628E-10
   7.927  0.261E-06  0.130E-06  0.130E-06
   7.929  0.733E-04  0.367E-04  0.367E-04
   7.931  0.279E-02  0.139E-02  0.139E-02
   7.933  0.144E-01  0.719E-02  0.719E-02
   7.935  0.120E-01  0.599E-02  0.599E-02
   7.937  0.377E-01  0.189E-01  0.189E-01
   7.939  0.923E-01  0.461E-01  0.461E-01
   7.941  0.313E-01  0.156E-01  0.156E-01
   7.943  0.144E-02  0.719E-03  0.719E-03
   7.945  0.101E-03  0.504E-04  0.504E-04
   7.947  0.304E-02  0.152E-02  0.152E-02
   7.949  0.136E-01  0.679E-02  0.679E-02
   7.951  0.822E-02  0.411E-02  0.411E-02
   7.953  0.673E-03  0.337E-03  0.337E-03
   7.955  0.747E-05  0.373E-05  0.373E-05
   7.957  0.996E-06  0.498E-06  0.498E-06
   7.959  0.316E-03  0.158E-03  0.158E-03
   7.961  0.137E-01  0.686E-02  0.686E-02
   7.963  0.817E-01  0.409E-01  0.409E-01
   7.965  0.705E-01  0.352E-01  0.352E-01
   7.967  0.170E-01  0.848E-02  0.848E-02
   7.969  0.224E-01  0.112E-01  0.112E-01
   7.971  0.168E-01  0.838E-02  0.838E-02
   7.973  0.301E-02  0.150E-02  0.150E-02
   7.975  0.334E-02  0.167E-02  0.167E-02
   7.977  0.232E-02  0.116E-02  0.116E-02
   7.979  0.660E-02  0.330E-02  0.330E-02
   7.981  0.543E-02  0.271E-02  0.271E-02
   7.983  0.610E-03  0.305E-03  0.305E-03
   7.985  0.505E-04  0.252E-04  0.252E-04
   7.987  0.194E-02  0.968E-03  0.968E-03
   7.989  0.135E-01  0.676E-02  0.676E-02
   7.991  0.137E-01  0.683E-02  0.683E-02
   7.993  0.362E-02  0.181E-02  0.181E-02
   7.995  0.821E-02  0.411E-02  0.411E-02
   7.997  0.535E-02  0.267E-02  0.267E-02
   7.999  0.473E-03  0.237E-03  0.237E-03
   8.001  0.567E-05  0.284E-05  0.284E-05
   8.003  0.187E-05  0.935E-06  0.935E-06
   8.005  0.304E-03  0.152E-03  0.152E-03
   8.007  0.677E-02  0.339E-02  0.339E-02
   8.009  0.209E-01  0.105E-01  0.105E-01
   8.011  0.130E-01  0.649E-02  0.649E-02
   8.013  0.512E-01  0.256E-01  0.256E-01
   8.015  0.114E+00  0.571E-01  0.571E-01
   8.017  0.115E+00  0.577E-01  0.577E-01
   8.019  0.473E-01  0.237E-01  0.237E-01
   8.021  0.321E-02  0.161E-02  0.161E-02
   8.023  0.304E-04  0.152E-04  0.152E-04
   8.025  0.654E-07  0.327E-07  0.327E-07
   8.027  0.142E-04  0.710E-05  0.710E-05
   8.029  0.103E-02  0.516E-03  0.516E-03
   8.031  0.102E-01  0.509E-02  0.509E-02
   8.033  0.136E-01  0.682E-02  0.682E-02
   8.035  0.322E-02  0.161E-02  0.161E-02
   8.037  0.115E-02  0.575E-03  0.575E-03
   8.039  0.229E-02  0.114E-02  0.114E-02
   8.041  0.101E-01  0.504E-02  0.504E-02
   8.043  0.750E-02  0.375E-02  0.375E-02
   8.045  0.256E-01  0.128E-01  0.128E-01
   8.047  0.877E-01  0.439E-01  0.439E-01
   8.049  0.472E-01  0.236E-01  0.236E-01
   8.051  0.239E-01  0.119E-01  0.119E-01
   8.053  0.104E-01  0.522E-02  0.522E-02
   8.055  0.693E-03  0.346E-03  0.346E-03
   8.057  0.623E-05  0.312E-05  0.312E-05
   8.059  0.759E-08  0.380E-08  0.380E-08
   8.061  0.375E-08  0.188E-08  0.188E-08
   8.063  0.150E-05  0.748E-06  0.748E-06
   8.065  0.850E-04  0.425E-04  0.425E-04
   8.067  0.107E-02  0.533E-03  0.533E-03
   8.069  0.688E-02  0.344E-02  0.344E-02
   8.071  0.113E-01  0.565E-02  0.565E-02
   8.073  0.645E-02  0.323E-02  0.323E-02
   8.075  0.149E-01  0.746E-02  0.746E-02
   8.077  0.782E-02  0.391E-02  0.391E-02
   8.079  0.557E-03  0.279E-03  0.279E-03
   8.081  0.538E-05  0.269E-05  0.269E-05
   8.083  0.710E-08  0.355E-08  0.355E-08
   8.085  0.259E-06  0.130E-06  0.130E-06
   8.087  0.119E-03  0.595E-04  0.595E-04
   8.089  0.740E-02  0.370E-02  0.370E-02
   8.091  0.622E-01  0.311E-01  0.311E-01
   8.093  0.719E-01  0.360E-01  0.360E-01
   8.095  0.249E-01  0.125E-01  0.125E-01
   8.097  0.227E-01  0.113E-01  0.113E-01
   8.099  0.533E-02  0.266E-02  0.266E-02
   8.101  0.648E-02  0.324E-02  0.324E-02
   8.103  0.119E-01  0.594E-02  0.594E-02
   8.105  0.330E-02  0.165E-02  0.165E-02
   8.107  0.184E-03  0.921E-04  0.921E-04
   8.109  0.298E-05  0.149E-05  0.149E-05
   8.111  0.192E-07  0.959E-08  0.959E-08
   8.113  0.633E-05  0.316E-05  0.316E-05
   8.115  0.612E-03  0.306E-03  0.306E-03
   8.117  0.801E-02  0.401E-02  0.401E-02
   8.119  0.142E-01  0.710E-02  0.710E-02
   8.121  0.341E-02  0.170E-02  0.170E-02
   8.123  0.638E-03  0.319E-03  0.319E-03
   8.125  0.175E-01  0.874E-02  0.874E-02
   8.127  0.784E-01  0.392E-01  0.392E-01
   8.129  0.529E-01  0.265E-01  0.265E-01
   8.131  0.581E-01  0.290E-01  0.290E-01
   8.133  0.744E-01  0.372E-01  0.372E-01
   8.135  0.187E-01  0.936E-02  0.936E-02
   8.137  0.125E-01  0.625E-02  0.625E-02
   8.139  0.467E-02  0.233E-02  0.233E-02
   8.141  0.874E-02  0.437E-02  0.437E-02
   8.143  0.337E-01  0.168E-01  0.168E-01
   8.145  0.397E-01  0.199E-01  0.199E-01
   8.147  0.140E-01  0.700E-02  0.700E-02
   8.149  0.167E-01  0.835E-02  0.835E-02
   8.151  0.698E-02  0.349E-02  0.349E-02
   8.153  0.520E-03  0.260E-03  0.260E-03
   8.155  0.289E-02  0.145E-02  0.145E-02
   8.157  0.148E-01  0.741E-02  0.741E-02
   8.159  0.164E-01  0.820E-02  0.820E-02
   8.161  0.154E-01  0.771E-02  0.771E-02
   8.163  0.608E-02  0.304E-02  0.304E-02
   8.165  0.478E-03  0.239E-03  0.239E-03
   8.167  0.433E-02  0.216E-02  0.216E-02
   8.169  0.452E-01  0.226E-01  0.226E-01
   8.171  0.100E+00  0.502E-01  0.502E-01
   8.173  0.415E-01  0.207E-01  0.207E-01
   8.175  0.392E-02  0.196E-02  0.196E-02
   8.177  0.864E-04  0.432E-04  0.432E-04
   8.179  0.651E-05  0.326E-05  0.326E-05
   8.181  0.356E-03  0.178E-03  0.178E-03
   8.183  0.428E-02  0.214E-02  0.214E-02
   8.185  0.163E-01  0.814E-02  0.814E-02
   8.187  0.135E-01  0.674E-02  0.674E-02
   8.189  0.175E-02  0.877E-03  0.877E-03
   8.191  0.150E-03  0.752E-04  0.752E-04
   8.193  0.393E-02  0.196E-02  0.196E-02
   8.195  0.249E-01  0.124E-01  0.124E-01
   8.197  0.214E-01  0.107E-01  0.107E-01
   8.199  0.331E-02  0.165E-02  0.165E-02
   8.201  0.939E-02  0.469E-02  0.469E-02
   8.203  0.195E-01  0.977E-02  0.977E-02
   8.205  0.232E-01  0.116E-01  0.116E-01
   8.207  0.154E-01  0.768E-02  0.768E-02
   8.209  0.113E-01  0.566E-02  0.566E-02
   8.211  0.255E-02  0.127E-02  0.127E-02
   8.213  0.206E-03  0.103E-03  0.103E-03
   8.215  0.727E-02  0.363E-02  0.363E-02
   8.217  0.574E-01  0.287E-01  0.287E-01
   8.219  0.613E-01  0.306E-01  0.306E-01
   8.221  0.895E-02  0.447E-02  0.447E-02
   8.223  0.115E-02  0.574E-03  0.574E-03
   8.225  0.335E-02  0.168E-02  0.168E-02
   8.227  0.172E-01  0.858E-02  0.858E-02
   8.229  0.193E-01  0.965E-02  0.965E-02
   8.231  0.331E-02  0.166E-02  0.166E-02
   8.233  0.130E-01  0.648E-02  0.648E-02
   8.235  0.679E-01  0.339E-01  0.339E-01
   8.237  0.484E-01  0.242E-01  0.242E-01
   8.239  0.702E-02  0.351E-02  0.351E-02
   8.241  0.116E-01  0.580E-02  0.580E-02
   8.243  0.142E-01  0.708E-02  0.708E-02
   8.245  0.896E-02  0.448E-02  0.448E-02
   8.247  0.917E-02  0.459E-02  0.459E-02
   8.249  0.730E-01  0.365E-01  0.365E-01
   8.251  0.924E-01  0.462E-01  0.462E-01
   8.253  0.282E-01  0.141E-01  0.141E-01
   8.255  0.266E-01  0.133E-01  0.133E-01
   8.257  0.744E-02  0.372E-02  0.372E-02
   8.259  0.285E-03  0.143E-03  0.143E-03
   8.261  0.148E-05  0.740E-06  0.740E-06
   8.263  0.104E-08  0.520E-09  0.520E-09
   8.265  0.988E-13  0.494E-13  0.494E-13
   8.267  0.196E-14  0.980E-15  0.980E-15
   8.269  0.391E-10  0.196E-10  0.196E-10
   8.271  0.107E-06  0.536E-07  0.536E-07
   8.273  0.403E-04  0.202E-04  0.202E-04
   8.275  0.209E-02  0.105E-02  0.105E-02
   8.277  0.150E-01  0.749E-02  0.749E-02
   8.279  0.148E-01  0.740E-02  0.740E-02
   8.281  0.246E-02  0.123E-02  0.123E-02
   8.283  0.101E-01  0.503E-02  0.503E-02
   8.285  0.305E-01  0.152E-01  0.152E-01
   8.287  0.126E-01  0.628E-02  0.628E-02
   8.289  0.699E-03  0.350E-03  0.350E-03
   8.291  0.527E-05  0.264E-05  0.264E-05
   8.293  0.538E-08  0.269E-08  0.269E-08
   8.295  0.954E-09  0.477E-09  0.477E-09
   8.297  0.173E-05  0.865E-06  0.865E-06
   8.299  0.425E-03  0.212E-03  0.212E-03
   8.301  0.141E-01  0.706E-02  0.706E-02
   8.303  0.637E-01  0.318E-01  0.318E-01
   8.305  0.461E-01  0.230E-01  0.230E-01
   8.307  0.389E-01  0.194E-01  0.194E-01
   8.309  0.315E-01  0.158E-01  0.158E-01
   8.311  0.151E-01  0.757E-02  0.757E-02
   8.313  0.305E-02  0.152E-02  0.152E-02
   8.315  0.423E-03  0.211E-03  0.211E-03
   8.317  0.888E-02  0.444E-02  0.444E-02
   8.319  0.340E-01  0.170E-01  0.170E-01
   8.321  0.176E-01  0.880E-02  0.880E-02
   8.323  0.124E-02  0.619E-03  0.619E-03
   8.325  0.628E-03  0.314E-03  0.314E-03
   8.327  0.168E-01  0.841E-02  0.841E-02
   8.329  0.622E-01  0.311E-01  0.311E-01
   8.331  0.311E-01  0.156E-01  0.156E-01
   8.333  0.212E-02  0.106E-02  0.106E-02
   8.335  0.396E-03  0.198E-03  0.198E-03
   8.337  0.976E-02  0.488E-02  0.488E-02
   8.339  0.586E-01  0.293E-01  0.293E-01
   8.341  0.598E-01  0.299E-01  0.299E-01
   8.343  0.890E-02  0.445E-02  0.445E-02
   8.345  0.311E-03  0.156E-03  0.156E-03
   8.347  0.236E-04  0.118E-04  0.118E-04
   8.349  0.543E-06  0.271E-06  0.271E-06
   8.351  0.949E-06  0.474E-06  0.474E-06
   8.353  0.238E-03  0.119E-03  0.119E-03
   8.355  0.810E-02  0.405E-02  0.405E-02
   8.357  0.373E-01  0.187E-01  0.187E-01
   8.359  0.233E-01  0.116E-01  0.116E-01
   8.361  0.292E-02  0.146E-02  0.146E-02
   8.363  0.572E-02  0.286E-02  0.286E-02
   8.365  0.100E-01  0.502E-02  0.502E-02
   8.367  0.310E-01  0.155E-01  0.155E-01
   8.369  0.349E-01  0.174E-01  0.174E-01
   8.371  0.560E-02  0.280E-02  0.280E-02
   8.373  0.122E-03  0.609E-04  0.609E-04
   8.375  0.360E-06  0.180E-06  0.180E-06
   8.377  0.357E-06  0.178E-06  0.178E-06
   8.379  0.126E-04  0.630E-05  0.630E-05
   8.381  0.221E-03  0.111E-03  0.111E-03
   8.383  0.273E-02  0.137E-02  0.137E-02
   8.385  0.177E-01  0.884E-02  0.884E-02
   8.387  0.568E-01  0.284E-01  0.284E-01
   8.389  0.326E-01  0.163E-01  0.163E-01
   8.391  0.260E-02  0.130E-02  0.130E-02
   8.393  0.287E-04  0.144E-04  0.144E-04
   8.395  0.151E-03  0.753E-04  0.753E-04
   8.397  0.665E-02  0.332E-02  0.332E-02
   8.399  0.402E-01  0.201E-01  0.201E-01
   8.401  0.346E-01  0.173E-01  0.173E-01
   8.403  0.567E-02  0.283E-02  0.283E-02
   8.405  0.181E-01  0.904E-02  0.904E-02
   8.407  0.542E-01  0.271E-01  0.271E-01
   8.409  0.222E-01  0.111E-01  0.111E-01
   8.411  0.185E-02  0.923E-03  0.923E-03
   8.413  0.143E-02  0.715E-03  0.715E-03
   8.415  0.455E-03  0.228E-03  0.228E-03
   8.417  0.679E-04  0.339E-04  0.339E-04
   8.419  0.304E-03  0.152E-03  0.152E-03
   8.421  0.271E-03  0.135E-03  0.135E-03
   8.423  0.692E-04  0.346E-04  0.346E-04
   8.425  0.547E-04  0.274E-04  0.274E-04
   8.427  0.215E-03  0.107E-03  0.107E-03
   8.429  0.409E-02  0.205E-02  0.205E-02
   8.431  0.336E-01  0.168E-01  0.168E-01
   8.433  0.384E-01  0.192E-01  0.192E-01
   8.435  0.770E-02  0.385E-02  0.385E-02
   8.437  0.244E-01  0.122E-01  0.122E-01
   8.439  0.536E-01  0.268E-01  0.268E-01
   8.441  0.162E-01  0.812E-02  0.812E-02
   8.443  0.503E-02  0.252E-02  0.252E-02
   8.445  0.360E-01  0.180E-01  0.180E-01
   8.447  0.450E-01  0.225E-01  0.225E-01
   8.449  0.770E-02  0.385E-02  0.385E-02
   8.451  0.181E-03  0.907E-04  0.907E-04
   8.453  0.145E-03  0.723E-04  0.723E-04
   8.455  0.876E-03  0.438E-03  0.438E-03
   8.457  0.721E-03  0.361E-03  0.361E-03
   8.459  0.821E-04  0.410E-04  0.410E-04
   8.461  0.950E-05  0.475E-05  0.475E-05
   8.463  0.218E-04  0.109E-04  0.109E-04
   8.465  0.172E-02  0.860E-03  0.860E-03
   8.467  0.242E-01  0.121E-01  0.121E-01
   8.469  0.467E-01  0.233E-01  0.233E-01
   8.471  0.132E-01  0.661E-02  0.661E-02
   8.473  0.748E-03  0.374E-03  0.374E-03
   8.475  0.128E-04  0.639E-05  0.639E-05
   8.477  0.176E-04  0.881E-05  0.881E-05
   8.479  0.175E-02  0.873E-03  0.873E-03
   8.481  0.235E-01  0.117E-01  0.117E-01
   8.483  0.427E-01  0.214E-01  0.214E-01
   8.485  0.108E-01  0.542E-02  0.542E-02
   8.487  0.206E-02  0.103E-02  0.103E-02
   8.489  0.159E-02  0.797E-03  0.797E-03
   8.491  0.214E-03  0.107E-03  0.107E-03
   8.493  0.103E-02  0.515E-03  0.515E-03
   8.495  0.215E-01  0.108E-01  0.108E-01
   8.497  0.699E-01  0.349E-01  0.349E-01
   8.499  0.705E-01  0.352E-01  0.352E-01
   8.501  0.307E-01  0.153E-01  0.153E-01
   8.503  0.251E-02  0.125E-02  0.125E-02
   8.505  0.333E-03  0.166E-03  0.166E-03
   8.507  0.214E-02  0.107E-02  0.107E-02
   8.509  0.216E-02  0.108E-02  0.108E-02
   8.511  0.295E-03  0.148E-03  0.148E-03
   8.513  0.546E-05  0.273E-05  0.273E-05
   8.515  0.137E-07  0.684E-08  0.684E-08
   8.517  0.464E-11  0.232E-11  0.232E-11
   8.519  0.106E-12  0.532E-13  0.532E-13
   8.521  0.120E-08  0.600E-09  0.600E-09
   8.523  0.184E-05  0.918E-06  0.918E-06
   8.525  0.380E-03  0.190E-03  0.190E-03
   8.527  0.107E-01  0.537E-02  0.537E-02
   8.529  0.420E-01  0.210E-01  0.210E-01
   8.531  0.241E-01  0.121E-01  0.121E-01
   8.533  0.249E-02  0.125E-02  0.125E-02
   8.535  0.134E-03  0.668E-04  0.668E-04
   8.537  0.280E-03  0.140E-03  0.140E-03
   8.539  0.711E-03  0.355E-03  0.355E-03
   8.541  0.134E-02  0.670E-03  0.670E-03
   8.543  0.103E-01  0.517E-02  0.517E-02
   8.545  0.368E-01  0.184E-01  0.184E-01
   8.547  0.199E-01  0.995E-02  0.995E-02
   8.549  0.693E-02  0.347E-02  0.347E-02
   8.551  0.471E-01  0.235E-01  0.235E-01
   8.553  0.828E-01  0.414E-01  0.414E-01
   8.555  0.473E-01  0.237E-01  0.237E-01
   8.557  0.121E-01  0.605E-02  0.605E-02
   8.559  0.179E-02  0.894E-03  0.894E-03
   8.561  0.132E-02  0.659E-03  0.659E-03
   8.563  0.113E-02  0.564E-03  0.564E-03
   8.565  0.198E-02  0.989E-03  0.989E-03
   8.567  0.476E-02  0.238E-02  0.238E-02
   8.569  0.346E-01  0.173E-01  0.173E-01
   8.571  0.536E-01  0.268E-01  0.268E-01
   8.573  0.130E-01  0.650E-02  0.650E-02
   8.575  0.181E-02  0.907E-03  0.907E-03
   8.577  0.125E-02  0.626E-03  0.626E-03
   8.579  0.145E-02  0.723E-03  0.723E-03
   8.581  0.111E-02  0.555E-03  0.555E-03
   8.583  0.588E-02  0.294E-02  0.294E-02
   8.585  0.717E-02  0.359E-02  0.359E-02
   8.587  0.199E-02  0.997E-03  0.997E-03
   8.589  0.136E-03  0.682E-04  0.682E-04
   8.591  0.323E-03  0.162E-03  0.162E-03
   8.593  0.144E-02  0.719E-03  0.719E-03
   8.595  0.187E-02  0.936E-03  0.936E-03
   8.597  0.211E-02  0.105E-02  0.105E-02
   8.599  0.973E-03  0.486E-03  0.486E-03
   8.601  0.105E-02  0.523E-03  0.523E-03
   8.603  0.108E-02  0.542E-03  0.542E-03
   8.605  0.642E-03  0.321E-03  0.321E-03
   8.607  0.104E-01  0.520E-02  0.520E-02
   8.609  0.362E-01  0.181E-01  0.181E-01
   8.611  0.666E-01  0.333E-01  0.333E-01
   8.613  0.793E-01  0.396E-01  0.396E-01
   8.615  0.427E-01  0.214E-01  0.214E-01
   8.617  0.177E-01  0.885E-02  0.885E-02
   8.619  0.142E-01  0.711E-02  0.711E-02
   8.621  0.254E-01  0.127E-01  0.127E-01
   8.623  0.962E-02  0.481E-02  0.481E-02
   8.625  0.317E-02  0.159E-02  0.159E-02
   8.627  0.177E-02  0.884E-03  0.884E-03
   8.629  0.126E-02  0.629E-03  0.629E-03
   8.631  0.111E-02  0.553E-03  0.553E-03
   8.633  0.105E-02  0.523E-03  0.523E-03
   8.635  0.488E-03  0.244E-03  0.244E-03
   8.637  0.131E-02  0.657E-03  0.657E-03
   8.639  0.286E-02  0.143E-02  0.143E-02
   8.641  0.403E-02  0.201E-02  0.201E-02
   8.643  0.262E-01  0.131E-01  0.131E-01
   8.645  0.670E-01  0.335E-01  0.335E-01
   8.647  0.323E-01  0.161E-01  0.161E-01
   8.649  0.607E-02  0.303E-02  0.303E-02
   8.651  0.375E-03  0.188E-03  0.188E-03
   8.653  0.178E-03  0.892E-04  0.892E-04
   8.655  0.140E-02  0.698E-03  0.698E-03
   8.657  0.521E-02  0.260E-02  0.260E-02
   8.659  0.405E-02  0.202E-02  0.202E-02
   8.661  0.195E-02  0.975E-03  0.975E-03
   8.663  0.125E-02  0.624E-03  0.624E-03
   8.665  0.166E-03  0.830E-04  0.830E-04
   8.667  0.461E-03  0.230E-03  0.230E-03
   8.669  0.203E-02  0.102E-02  0.102E-02
   8.671  0.258E-02  0.129E-02  0.129E-02
   8.673  0.841E-02  0.420E-02  0.420E-02
   8.675  0.608E-01  0.304E-01  0.304E-01
   8.677  0.118E+00  0.591E-01  0.591E-01
   8.679  0.524E-01  0.262E-01  0.262E-01
   8.681  0.126E-01  0.632E-02  0.632E-02
   8.683  0.139E-01  0.696E-02  0.696E-02
   8.685  0.595E-02  0.297E-02  0.297E-02
   8.687  0.486E-03  0.243E-03  0.243E-03
   8.689  0.686E-04  0.343E-04  0.343E-04
   8.691  0.308E-03  0.154E-03  0.154E-03
   8.693  0.514E-03  0.257E-03  0.257E-03
   8.695  0.313E-02  0.157E-02  0.157E-02
   8.697  0.534E-02  0.267E-02  0.267E-02
   8.699  0.427E-02  0.214E-02  0.214E-02
   8.701  0.222E-02  0.111E-02  0.111E-02
   8.703  0.254E-02  0.127E-02  0.127E-02
   8.705  0.110E-02  0.551E-03  0.551E-03
   8.707  0.875E-04  0.438E-04  0.438E-04
   8.709  0.857E-04  0.429E-04  0.429E-04
   8.711  0.146E-03  0.729E-04  0.729E-04
   8.713  0.940E-03  0.470E-03  0.470E-03
   8.715  0.485E-02  0.243E-02  0.243E-02
   8.717  0.742E-02  0.371E-02  0.371E-02
   8.719  0.837E-02  0.419E-02  0.419E-02
   8.721  0.336E-01  0.168E-01  0.168E-01
   8.723  0.831E-01  0.415E-01  0.415E-01
   8.725  0.545E-01  0.272E-01  0.272E-01
   8.727  0.116E-01  0.579E-02  0.579E-02
   8.729  0.834E-03  0.417E-03  0.417E-03
   8.731  0.121E-02  0.607E-03  0.607E-03
   8.733  0.461E-02  0.231E-02  0.231E-02
   8.735  0.240E-02  0.120E-02  0.120E-02
   8.737  0.608E-03  0.304E-03  0.304E-03
   8.739  0.417E-02  0.209E-02  0.209E-02
   8.741  0.539E-02  0.269E-02  0.269E-02
   8.743  0.386E-02  0.193E-02  0.193E-02
   8.745  0.453E-01  0.227E-01  0.227E-01
   8.747  0.950E-01  0.475E-01  0.475E-01
   8.749  0.282E-01  0.141E-01  0.141E-01
   8.751  0.662E-02  0.331E-02  0.331E-02
   8.753  0.728E-02  0.364E-02  0.364E-02
   8.755  0.672E-02  0.336E-02  0.336E-02
   8.757  0.421E-02  0.211E-02  0.211E-02
   8.759  0.237E-02  0.118E-02  0.118E-02
   8.761  0.124E-01  0.621E-02  0.621E-02
   8.763  0.149E-01  0.745E-02  0.745E-02
   8.765  0.690E-02  0.345E-02  0.345E-02
   8.767  0.923E-03  0.462E-03  0.462E-03
   8.769  0.539E-04  0.270E-04  0.270E-04
   8.771  0.121E-02  0.606E-03  0.606E-03
   8.773  0.576E-02  0.288E-02  0.288E-02
   8.775  0.458E-02  0.229E-02  0.229E-02
   8.777  0.354E-02  0.177E-02  0.177E-02
   8.779  0.154E-02  0.771E-03  0.771E-03
   8.781  0.994E-04  0.497E-04  0.497E-04
   8.783  0.129E-05  0.644E-06  0.644E-06
   8.785  0.808E-04  0.404E-04  0.404E-04
   8.787  0.211E-02  0.106E-02  0.106E-02
   8.789  0.748E-02  0.374E-02  0.374E-02
   8.791  0.360E-02  0.180E-02  0.180E-02
   8.793  0.107E-02  0.534E-03  0.534E-03
   8.795  0.561E-02  0.280E-02  0.280E-02
   8.797  0.508E-02  0.254E-02  0.254E-02
   8.799  0.634E-03  0.317E-03  0.317E-03
   8.801  0.156E-02  0.781E-03  0.781E-03
   8.803  0.328E-01  0.164E-01  0.164E-01
   8.805  0.941E-01  0.470E-01  0.470E-01
   8.807  0.366E-01  0.183E-01  0.183E-01
   8.809  0.193E-02  0.964E-03  0.964E-03
   8.811  0.664E-04  0.332E-04  0.332E-04
   8.813  0.173E-02  0.863E-03  0.863E-03
   8.815  0.771E-02  0.385E-02  0.385E-02
   8.817  0.653E-02  0.327E-02  0.327E-02
   8.819  0.300E-01  0.150E-01  0.150E-01
   8.821  0.106E+00  0.531E-01  0.531E-01
   8.823  0.610E-01  0.305E-01  0.305E-01
   8.825  0.489E-02  0.245E-02  0.245E-02
   8.827  0.534E-04  0.267E-04  0.267E-04
   8.829  0.957E-06  0.479E-06  0.479E-06
   8.831  0.108E-03  0.541E-04  0.541E-04
   8.833  0.181E-02  0.903E-03  0.903E-03
   8.835  0.408E-02  0.204E-02  0.204E-02
   8.837  0.125E-02  0.624E-03  0.624E-03
   8.839  0.369E-03  0.185E-03  0.185E-03
   8.841  0.459E-02  0.229E-02  0.229E-02
   8.843  0.117E-01  0.586E-02  0.586E-02
   8.845  0.983E-02  0.491E-02  0.491E-02
   8.847  0.272E-02  0.136E-02  0.136E-02
   8.849  0.714E-02  0.357E-02  0.357E-02
   8.851  0.193E-01  0.963E-02  0.963E-02
   8.853  0.713E-02  0.357E-02  0.357E-02
   8.855  0.357E-03  0.179E-03  0.179E-03
   8.857  0.242E-05  0.121E-05  0.121E-05
   8.859  0.182E-07  0.908E-08  0.908E-08
   8.861  0.705E-05  0.352E-05  0.352E-05
   8.863  0.422E-03  0.211E-03  0.211E-03
   8.865  0.342E-02  0.171E-02  0.171E-02
   8.867  0.445E-02  0.223E-02  0.223E-02
   8.869  0.925E-02  0.463E-02  0.463E-02
   8.871  0.155E-01  0.774E-02  0.774E-02
   8.873  0.401E-02  0.201E-02  0.201E-02
   8.875  0.151E-03  0.756E-04  0.756E-04
   8.877  0.814E-06  0.407E-06  0.407E-06
   8.879  0.618E-09  0.309E-09  0.309E-09
   8.881  0.347E-10  0.173E-10  0.173E-10
   8.883  0.137E-06  0.684E-07  0.684E-07
   8.885  0.731E-04  0.366E-04  0.366E-04
   8.887  0.529E-02  0.265E-02  0.265E-02
   8.889  0.519E-01  0.259E-01  0.259E-01
   8.891  0.687E-01  0.344E-01  0.344E-01
   8.893  0.124E-01  0.620E-02  0.620E-02
   8.895  0.281E-02  0.141E-02  0.141E-02
   8.897  0.208E-01  0.104E-01  0.104E-01
   8.899  0.707E-01  0.354E-01  0.354E-01
   8.901  0.133E+00  0.664E-01  0.664E-01
   8.903  0.558E-01  0.279E-01  0.279E-01
   8.905  0.348E-02  0.174E-02  0.174E-02
   8.907  0.297E-04  0.149E-04  0.149E-04
   8.909  0.345E-07  0.173E-07  0.173E-07
   8.911  0.542E-11  0.271E-11  0.271E-11
   8.913  0.566E-15  0.283E-15  0.283E-15
   8.915  0.102E-10  0.508E-11  0.508E-11
   8.917  0.312E-07  0.156E-07  0.156E-07
   8.919  0.132E-04  0.659E-05  0.659E-05
   8.921  0.793E-03  0.396E-03  0.396E-03
   8.923  0.743E-02  0.371E-02  0.371E-02
   8.925  0.125E-01  0.627E-02  0.627E-02
   8.927  0.402E-02  0.201E-02  0.201E-02
   8.929  0.241E-03  0.120E-03  0.120E-03
   8.931  0.907E-03  0.453E-03  0.453E-03
   8.933  0.507E-02  0.253E-02  0.253E-02
   8.935  0.384E-02  0.192E-02  0.192E-02
   8.937  0.394E-03  0.197E-03  0.197E-03
   8.939  0.546E-05  0.273E-05  0.273E-05
   8.941  0.104E-07  0.518E-08  0.518E-08
   8.943  0.191E-06  0.953E-07  0.953E-07
   8.945  0.507E-04  0.253E-04  0.253E-04
   8.947  0.231E-02  0.115E-02  0.115E-02
   8.949  0.207E-01  0.103E-01  0.103E-01
   8.951  0.341E-01  0.171E-01  0.171E-01
   8.953  0.887E-02  0.443E-02  0.443E-02
   8.955  0.329E-03  0.164E-03  0.164E-03
   8.957  0.168E-05  0.840E-06  0.840E-06
   8.959  0.117E-08  0.587E-09  0.587E-09
   8.961  0.690E-11  0.345E-11  0.345E-11
   8.963  0.222E-07  0.111E-07  0.111E-07
   8.965  0.986E-05  0.493E-05  0.493E-05
   8.967  0.593E-03  0.296E-03  0.296E-03
   8.969  0.496E-02  0.248E-02  0.248E-02
   8.971  0.794E-02  0.397E-02  0.397E-02
   8.973  0.861E-02  0.430E-02  0.430E-02
   8.975  0.890E-02  0.445E-02  0.445E-02
   8.977  0.497E-01  0.248E-01  0.248E-01
   8.979  0.731E-01  0.365E-01  0.365E-01
   8.981  0.151E-01  0.754E-02  0.754E-02
   8.983  0.180E-01  0.902E-02  0.902E-02
   8.985  0.109E+00  0.543E-01  0.543E-01
   8.987  0.906E-01  0.453E-01  0.453E-01
   8.989  0.104E-01  0.518E-02  0.518E-02
   8.991  0.240E-02  0.120E-02  0.120E-02
   8.993  0.527E-02  0.264E-02  0.264E-02
   8.995  0.202E-02  0.101E-02  0.101E-02
   8.997  0.122E-03  0.611E-04  0.611E-04
   8.999  0.148E-04  0.739E-05  0.739E-05
   9.001  0.128E-02  0.640E-03  0.640E-03
   9.003  0.162E-01  0.810E-02  0.810E-02
   9.005  0.286E-01  0.143E-01  0.143E-01
   9.007  0.137E-01  0.686E-02  0.686E-02
   9.009  0.837E-02  0.418E-02  0.418E-02
   9.011  0.126E-02  0.631E-03  0.631E-03
   9.013  0.327E-04  0.163E-04  0.163E-04
   9.015  0.173E-03  0.863E-04  0.863E-04
   9.017  0.683E-03  0.342E-03  0.342E-03
   9.019  0.367E-03  0.184E-03  0.184E-03
   9.021  0.268E-04  0.134E-04  0.134E-04
   9.023  0.266E-06  0.133E-06  0.133E-06
   9.025  0.359E-09  0.180E-09  0.180E-09
   9.027  0.658E-13  0.329E-13  0.329E-13
   9.029  0.164E-17  0.818E-18  0.818E-18
   9.031  0.113E-21  0.563E-22  0.563E-22
   9.033  0.116E-21  0.581E-22  0.581E-22
   9.035  0.520E-20  0.260E-20  0.260E-20
   9.037  0.800E-15  0.400E-15  0.400E-15
   9.039  0.167E-10  0.836E-11  0.836E-11
   9.041  0.473E-07  0.236E-07  0.236E-07
   9.043  0.181E-04  0.904E-05  0.904E-05
   9.045  0.937E-03  0.468E-03  0.468E-03
   9.047  0.656E-02  0.328E-02  0.328E-02
   9.049  0.623E-02  0.311E-02  0.311E-02
   9.051  0.799E-03  0.400E-03  0.400E-03
   9.053  0.139E-04  0.694E-05  0.694E-05
   9.055  0.363E-05  0.182E-05  0.182E-05
   9.057  0.554E-03  0.277E-03  0.277E-03
   9.059  0.115E-01  0.577E-02  0.577E-02
   9.061  0.326E-01  0.163E-01  0.163E-01
   9.063  0.125E-01  0.625E-02  0.625E-02
   9.065  0.590E-02  0.295E-02  0.295E-02
   9.067  0.517E-01  0.258E-01  0.258E-01
   9.069  0.688E-01  0.344E-01  0.344E-01
   9.071  0.169E-01  0.843E-02  0.843E-02
   9.073  0.667E-01  0.334E-01  0.334E-01
   9.075  0.134E+00  0.668E-01  0.668E-01
   9.077  0.363E-01  0.182E-01  0.182E-01
   9.079  0.134E-02  0.669E-03  0.669E-03
   9.081  0.666E-05  0.333E-05  0.333E-05
   9.083  0.345E-06  0.172E-06  0.172E-06
   9.085  0.747E-04  0.374E-04  0.374E-04
   9.087  0.222E-02  0.111E-02  0.111E-02
   9.089  0.894E-02  0.447E-02  0.447E-02
   9.091  0.487E-02  0.243E-02  0.243E-02
   9.093  0.359E-03  0.179E-03  0.179E-03
   9.095  0.358E-05  0.179E-05  0.179E-05
   9.097  0.483E-08  0.242E-08  0.242E-08
   9.099  0.882E-12  0.441E-12  0.441E-12
   9.101  0.218E-16  0.109E-16  0.109E-16
   9.103  0.142E-21  0.711E-22  0.711E-22
   9.105  0.138E-22  0.690E-23  0.690E-23
   9.107  0.225E-24  0.113E-24  0.113E-24
   9.109  0.224E-14  0.112E-14  0.112E-14
   9.111  0.506E-10  0.253E-10  0.253E-10
   9.113  0.155E-06  0.773E-07  0.773E-07
   9.115  0.639E-04  0.320E-04  0.320E-04
   9.117  0.358E-02  0.179E-02  0.179E-02
   9.119  0.271E-01  0.135E-01  0.135E-01
   9.121  0.277E-01  0.139E-01  0.139E-01
   9.123  0.385E-02  0.192E-02  0.192E-02
   9.125  0.722E-04  0.361E-04  0.361E-04
   9.127  0.625E-05  0.313E-05  0.313E-05
   9.129  0.526E-03  0.263E-03  0.263E-03
   9.131  0.618E-02  0.309E-02  0.309E-02
   9.133  0.981E-02  0.491E-02  0.491E-02
   9.135  0.211E-02  0.105E-02  0.105E-02
   9.137  0.614E-04  0.307E-04  0.307E-04
   9.139  0.242E-06  0.121E-06  0.121E-06
   9.141  0.129E-09  0.644E-10  0.644E-10
   9.143  0.929E-14  0.464E-14  0.464E-14
   9.145  0.136E-18  0.681E-19  0.681E-19
   9.147  0.700E-14  0.350E-14  0.350E-14
   9.149  0.146E-09  0.728E-10  0.728E-10
   9.151  0.411E-06  0.205E-06  0.205E-06
   9.153  0.157E-03  0.783E-04  0.783E-04
   9.155  0.808E-02  0.404E-02  0.404E-02
   9.157  0.565E-01  0.282E-01  0.282E-01
   9.159  0.534E-01  0.267E-01  0.267E-01
   9.161  0.687E-02  0.343E-02  0.343E-02
   9.163  0.426E-02  0.213E-02  0.213E-02
   9.165  0.652E-01  0.326E-01  0.326E-01
   9.167  0.139E+00  0.694E-01  0.694E-01
   9.169  0.400E-01  0.200E-01  0.200E-01
   9.171  0.156E-02  0.782E-03  0.782E-03
   9.173  0.197E-03  0.985E-04  0.985E-04
   9.175  0.409E-02  0.205E-02  0.205E-02
   9.177  0.126E-01  0.631E-02  0.631E-02
   9.179  0.178E-01  0.888E-02  0.888E-02
   9.181  0.365E-01  0.182E-01  0.182E-01
   9.183  0.137E-01  0.683E-02  0.683E-02
   9.185  0.697E-03  0.348E-03  0.348E-03
   9.187  0.481E-05  0.240E-05  0.240E-05
   9.189  0.449E-08  0.225E-08  0.225E-08
   9.191  0.568E-12  0.284E-12  0.284E-12
   9.193  0.972E-17  0.486E-17  0.486E-17
   9.195  0.192E-25  0.960E-26  0.960E-26
   9.197  0.138E-23  0.691E-24  0.691E-24
   9.199  0.135E-22  0.673E-23  0.673E-23
   9.201  0.177E-22  0.887E-23  0.887E-23
   9.203  0.332E-23  0.166E-23  0.166E-23
   9.205  0.239E-23  0.119E-23  0.119E-23
   9.207  0.467E-23  0.233E-23  0.233E-23
   9.209  0.128E-23  0.639E-24  0.639E-24
   9.211  0.169E-17  0.844E-18  0.844E-18
   9.213  0.112E-12  0.561E-13  0.561E-13
   9.215  0.101E-08  0.505E-09  0.505E-09
   9.217  0.123E-05  0.616E-06  0.616E-06
   9.219  0.203E-03  0.101E-03  0.101E-03
   9.221  0.453E-02  0.226E-02  0.226E-02
   9.223  0.137E-01  0.684E-02  0.684E-02
   9.225  0.559E-02  0.280E-02  0.280E-02
   9.227  0.309E-03  0.155E-03  0.155E-03
   9.229  0.232E-05  0.116E-05  0.116E-05
   9.231  0.235E-08  0.117E-08  0.117E-08
   9.233  0.107E-11  0.537E-12  0.537E-12
   9.235  0.566E-08  0.283E-08  0.283E-08
   9.237  0.591E-05  0.296E-05  0.296E-05
   9.239  0.890E-03  0.445E-03  0.445E-03
   9.241  0.206E-01  0.103E-01  0.103E-01
   9.243  0.800E-01  0.400E-01  0.400E-01
   9.245  0.529E-01  0.264E-01  0.264E-01
   9.247  0.558E-02  0.279E-02  0.279E-02
   9.249  0.870E-04  0.435E-04  0.435E-04
   9.251  0.192E-06  0.958E-07  0.958E-07
   9.253  0.258E-05  0.129E-05  0.129E-05
   9.255  0.697E-03  0.348E-03  0.348E-03
   9.257  0.255E-01  0.127E-01  0.127E-01
   9.259  0.126E+00  0.629E-01  0.629E-01
   9.261  0.842E-01  0.421E-01  0.421E-01
   9.263  0.763E-02  0.381E-02  0.381E-02
   9.265  0.106E-03  0.530E-04  0.530E-04
   9.267  0.965E-03  0.482E-03  0.482E-03
   9.269  0.100E-01  0.500E-02  0.500E-02
   9.271  0.141E-01  0.703E-02  0.703E-02
   9.273  0.267E-02  0.133E-02  0.133E-02
   9.275  0.687E-04  0.343E-04  0.343E-04
   9.277  0.239E-06  0.119E-06  0.119E-06
   9.279  0.113E-09  0.563E-10  0.563E-10
   9.281  0.717E-14  0.359E-14  0.359E-14
   9.283  0.619E-19  0.309E-19  0.309E-19
   9.285  0.000E+00  0.000E+00  0.000E+00
   9.287  0.154E-35  0.768E-36  0.768E-36
   9.289  0.515E-31  0.257E-31  0.257E-31
   9.291  0.662E-18  0.331E-18  0.331E-18
   9.293  0.578E-13  0.289E-13  0.289E-13
   9.295  0.682E-09  0.341E-09  0.341E-09
   9.297  0.109E-05  0.545E-06  0.545E-06
   9.299  0.236E-03  0.118E-03  0.118E-03
   9.301  0.691E-02  0.345E-02  0.345E-02
   9.303  0.274E-01  0.137E-01  0.137E-01
   9.305  0.147E-01  0.734E-02  0.734E-02
   9.307  0.106E-02  0.532E-03  0.532E-03
   9.309  0.105E-04  0.523E-05  0.523E-05
   9.311  0.326E-07  0.163E-07  0.163E-07
   9.313  0.115E-04  0.575E-05  0.575E-05
   9.315  0.963E-03  0.481E-03  0.481E-03
   9.317  0.117E-01  0.585E-02  0.585E-02
   9.319  0.321E-01  0.161E-01  0.161E-01
   9.321  0.386E-01  0.193E-01  0.193E-01
   9.323  0.108E-01  0.538E-02  0.538E-02
   9.325  0.437E-03  0.218E-03  0.218E-03
   9.327  0.242E-05  0.121E-05  0.121E-05
   9.329  0.181E-08  0.906E-09  0.906E-09
   9.331  0.184E-12  0.919E-13  0.919E-13
   9.333  0.252E-17  0.126E-17  0.126E-17
   9.335  0.115E-18  0.575E-19  0.575E-19
   9.337  0.166E-13  0.831E-14  0.831E-14
   9.339  0.326E-09  0.163E-09  0.163E-09
   9.341  0.863E-06  0.432E-06  0.432E-06
   9.343  0.310E-03  0.155E-03  0.155E-03
   9.345  0.150E-01  0.752E-02  0.752E-02
   9.347  0.989E-01  0.494E-01  0.494E-01
   9.349  0.879E-01  0.440E-01  0.440E-01
   9.351  0.106E-01  0.529E-02  0.529E-02
   9.353  0.185E-03  0.923E-04  0.923E-04
   9.355  0.101E-02  0.503E-03  0.503E-03
   9.357  0.112E-01  0.561E-02  0.561E-02
   9.359  0.169E-01  0.847E-02  0.847E-02
   9.361  0.347E-02  0.173E-02  0.173E-02
   9.363  0.754E-03  0.377E-03  0.377E-03
   9.365  0.967E-02  0.484E-02  0.484E-02
   9.367  0.192E-01  0.962E-02  0.962E-02
   9.369  0.518E-02  0.259E-02  0.259E-02
   9.371  0.189E-03  0.944E-04  0.944E-04
   9.373  0.931E-06  0.466E-06  0.466E-06
   9.375  0.259E-07  0.130E-07  0.130E-07
   9.377  0.138E-04  0.692E-05  0.692E-05
   9.379  0.102E-02  0.512E-03  0.512E-03
   9.381  0.102E-01  0.512E-02  0.512E-02
   9.383  0.139E-01  0.694E-02  0.694E-02
   9.385  0.255E-02  0.127E-02  0.127E-02
   9.387  0.632E-04  0.316E-04  0.316E-04
   9.389  0.212E-06  0.106E-06  0.106E-06
   9.391  0.964E-10  0.482E-10  0.482E-10
   9.393  0.250E-12  0.125E-12  0.125E-12
   9.395  0.169E-08  0.846E-09  0.846E-09
   9.397  0.159E-05  0.796E-06  0.796E-06
   9.399  0.203E-03  0.101E-03  0.101E-03
   9.401  0.349E-02  0.174E-02  0.174E-02
   9.403  0.813E-02  0.406E-02  0.406E-02
   9.405  0.256E-02  0.128E-02  0.128E-02
   9.407  0.110E-03  0.548E-04  0.548E-04
   9.409  0.689E-04  0.344E-04  0.344E-04
   9.411  0.298E-02  0.149E-02  0.149E-02
   9.413  0.176E-01  0.879E-02  0.879E-02
   9.415  0.142E-01  0.711E-02  0.711E-02
   9.417  0.101E-01  0.504E-02  0.504E-02
   9.419  0.627E-01  0.314E-01  0.314E-01
   9.421  0.625E-01  0.313E-01  0.313E-01
   9.423  0.110E-01  0.550E-02  0.550E-02
   9.425  0.335E-02  0.168E-02  0.168E-02
   9.427  0.524E-03  0.262E-03  0.262E-03
   9.429  0.478E-04  0.239E-04  0.239E-04
   9.431  0.720E-03  0.360E-03  0.360E-03
   9.433  0.194E-02  0.969E-03  0.969E-03
   9.435  0.706E-03  0.353E-03  0.353E-03
   9.437  0.348E-04  0.174E-04  0.174E-04
   9.439  0.232E-06  0.116E-06  0.116E-06
   9.441  0.283E-07  0.141E-07  0.141E-07
   9.443  0.435E-05  0.217E-05  0.217E-05
   9.445  0.925E-04  0.462E-04  0.462E-04
   9.447  0.297E-03  0.148E-03  0.148E-03
   9.449  0.227E-03  0.114E-03  0.114E-03
   9.451  0.694E-04  0.347E-04  0.347E-04
   9.453  0.766E-03  0.383E-03  0.383E-03
   9.455  0.998E-02  0.499E-02  0.499E-02
   9.457  0.250E-01  0.125E-01  0.125E-01
   9.459  0.345E-01  0.173E-01  0.173E-01
   9.461  0.154E-01  0.771E-02  0.771E-02
   9.463  0.244E-02  0.122E-02  0.122E-02
   9.465  0.563E-02  0.281E-02  0.281E-02
   9.467  0.310E-02  0.155E-02  0.155E-02
   9.469  0.375E-03  0.188E-03  0.188E-03
   9.471  0.421E-04  0.210E-04  0.210E-04
   9.473  0.139E-05  0.697E-06  0.697E-06
   9.475  0.687E-08  0.344E-08  0.344E-08
   9.477  0.194E-06  0.971E-07  0.971E-07
   9.479  0.162E-04  0.810E-05  0.810E-05
   9.481  0.183E-03  0.915E-04  0.915E-04
   9.483  0.296E-03  0.148E-03  0.148E-03
   9.485  0.940E-03  0.470E-03  0.470E-03
   9.487  0.665E-02  0.332E-02  0.332E-02
   9.489  0.678E-02  0.339E-02  0.339E-02
   9.491  0.937E-03  0.468E-03  0.468E-03
   9.493  0.317E-04  0.159E-04  0.159E-04
   9.495  0.418E-04  0.209E-04  0.209E-04
   9.497  0.133E-03  0.665E-04  0.665E-04
   9.499  0.864E-03  0.432E-03  0.432E-03
   9.501  0.852E-03  0.426E-03  0.426E-03
   9.503  0.114E-03  0.570E-04  0.570E-04
   9.505  0.206E-05  0.103E-05  0.103E-05
   9.507  0.505E-08  0.252E-08  0.252E-08
   9.509  0.167E-11  0.836E-12  0.836E-12
   9.511  0.750E-16  0.375E-16  0.375E-16
   9.513  0.461E-27  0.230E-27  0.230E-27
   9.515  0.294E-30  0.147E-30  0.147E-30
   9.517  0.254E-34  0.127E-34  0.127E-34
   9.519  0.101E-34  0.503E-35  0.503E-35
   9.521  0.142E-30  0.711E-31  0.711E-31
   9.523  0.272E-27  0.136E-27  0.136E-27
   9.525  0.703E-25  0.352E-25  0.352E-25
   9.527  0.246E-23  0.123E-23  0.123E-23
   9.529  0.117E-22  0.584E-23  0.584E-23
   9.531  0.749E-23  0.374E-23  0.374E-23
   9.533  0.650E-24  0.325E-24  0.325E-24
   9.535  0.763E-26  0.382E-26  0.382E-26
   9.537  0.121E-28  0.607E-29  0.607E-29
   9.539  0.261E-32  0.131E-32  0.131E-32
   9.541  0.612E-31  0.306E-31  0.306E-31
   9.543  0.262E-27  0.131E-27  0.131E-27
   9.545  0.152E-24  0.760E-25  0.760E-25
   9.547  0.119E-22  0.596E-23  0.596E-23
   9.549  0.127E-21  0.633E-22  0.633E-22
   9.551  0.182E-21  0.910E-22  0.910E-22
   9.553  0.354E-22  0.177E-22  0.177E-22
   9.555  0.132E-23  0.658E-24  0.658E-24
   9.557  0.584E-24  0.292E-24  0.292E-24
   9.559  0.119E-24  0.595E-25  0.595E-25
   9.561  0.329E-26  0.165E-26  0.165E-26
   9.563  0.124E-28  0.618E-29  0.618E-29
   9.565  0.627E-32  0.313E-32  0.313E-32
   9.567  0.430E-36  0.215E-36  0.215E-36
   9.569  0.400E-41  0.200E-41  0.200E-41
   9.571  0.000E+00  0.000E+00  0.000E+00
   9.573  0.000E+00  0.000E+00  0.000E+00
   9.575  0.356E-38  0.178E-38  0.178E-38
   9.577  0.168E-33  0.840E-34  0.840E-34
   9.579  0.107E-29  0.536E-30  0.536E-30
   9.581  0.924E-27  0.462E-27  0.462E-27
   9.583  0.108E-24  0.540E-25  0.540E-25
   9.585  0.171E-23  0.854E-24  0.854E-24
   9.587  0.365E-23  0.183E-23  0.183E-23
   9.589  0.106E-23  0.529E-24  0.529E-24
   9.591  0.542E-25  0.271E-25  0.271E-25
   9.593  0.182E-23  0.911E-24  0.911E-24
   9.595  0.352E-22  0.176E-22  0.176E-22
   9.597  0.923E-22  0.461E-22  0.461E-22
   9.599  0.327E-22  0.163E-22  0.163E-22
   9.601  0.157E-23  0.784E-24  0.784E-24
   9.603  0.102E-25  0.509E-26  0.509E-26
   9.605  0.894E-29  0.447E-29  0.447E-29
   9.607  0.106E-32  0.531E-33  0.531E-33
   9.609  0.171E-37  0.855E-38  0.855E-38
   9.611  0.000E+00  0.000E+00  0.000E+00
   9.613  0.646E-40  0.323E-40  0.323E-40
   9.615  0.696E-35  0.348E-35  0.348E-35
   9.617  0.102E-30  0.508E-31  0.508E-31
   9.619  0.201E-27  0.100E-27  0.100E-27
   9.621  0.536E-25  0.268E-25  0.268E-25
   9.623  0.194E-23  0.970E-24  0.970E-24
   9.625  0.949E-23  0.475E-23  0.475E-23
   9.627  0.629E-23  0.314E-23  0.314E-23
   9.629  0.564E-24  0.282E-24  0.282E-24
   9.631  0.684E-26  0.342E-26  0.342E-26
   9.633  0.112E-28  0.562E-29  0.562E-29
   9.635  0.250E-32  0.125E-32  0.125E-32
   9.637  0.751E-37  0.375E-37  0.375E-37
   9.639  0.228E-39  0.114E-39  0.114E-39
   9.641  0.738E-16  0.369E-16  0.369E-16
   9.643  0.380E-11  0.190E-11  0.190E-11
   9.645  0.265E-07  0.133E-07  0.133E-07
   9.647  0.251E-04  0.125E-04  0.125E-04
   9.649  0.321E-02  0.160E-02  0.160E-02
   9.651  0.566E-01  0.283E-01  0.283E-01
   9.653  0.160E+00  0.801E-01  0.801E-01
   9.655  0.141E+00  0.705E-01  0.705E-01
   9.657  0.458E-01  0.229E-01  0.229E-01
   9.659  0.264E-02  0.132E-02  0.132E-02
   9.661  0.212E-04  0.106E-04  0.106E-04
   9.663  0.231E-07  0.116E-07  0.116E-07
   9.665  0.377E-09  0.189E-09  0.189E-09
   9.667  0.883E-06  0.442E-06  0.442E-06
   9.669  0.283E-03  0.141E-03  0.141E-03
   9.671  0.124E-01  0.620E-02  0.620E-02
   9.673  0.846E-01  0.423E-01  0.423E-01
   9.675  0.173E+00  0.866E-01  0.866E-01
   9.677  0.146E+00  0.728E-01  0.728E-01
   9.679  0.227E-01  0.113E-01  0.113E-01
   9.681  0.496E-03  0.248E-03  0.248E-03
   9.683  0.147E-05  0.735E-06  0.735E-06
   9.685  0.591E-09  0.295E-09  0.295E-09
   9.687  0.321E-13  0.160E-13  0.160E-13
   9.689  0.520E-17  0.260E-17  0.260E-17
   9.691  0.363E-12  0.182E-12  0.182E-12
   9.693  0.360E-08  0.180E-08  0.180E-08
   9.695  0.482E-05  0.241E-05  0.241E-05
   9.697  0.874E-03  0.437E-03  0.437E-03
   9.699  0.214E-01  0.107E-01  0.107E-01
   9.701  0.712E-01  0.356E-01  0.356E-01
   9.703  0.320E-01  0.160E-01  0.160E-01
   9.705  0.195E-02  0.973E-03  0.973E-03
   9.707  0.160E-04  0.801E-05  0.801E-05
   9.709  0.179E-07  0.893E-08  0.893E-08
   9.711  0.269E-11  0.135E-11  0.135E-11
   9.713  0.791E-16  0.396E-16  0.396E-16
   9.715  0.161E-11  0.807E-12  0.807E-12
   9.717  0.146E-07  0.728E-08  0.728E-08
   9.719  0.178E-04  0.889E-05  0.889E-05
   9.721  0.294E-02  0.147E-02  0.147E-02
   9.723  0.658E-01  0.329E-01  0.329E-01
   9.725  0.199E+00  0.995E-01  0.995E-01
   9.727  0.816E-01  0.408E-01  0.408E-01
   9.729  0.460E-02  0.230E-02  0.230E-02
   9.731  0.505E-02  0.253E-02  0.253E-02
   9.733  0.452E-01  0.226E-01  0.226E-01
   9.735  0.550E-01  0.275E-01  0.275E-01
   9.737  0.907E-02  0.454E-02  0.454E-02
   9.739  0.202E-03  0.101E-03  0.101E-03
   9.741  0.611E-06  0.306E-06  0.306E-06
   9.743  0.250E-09  0.125E-09  0.125E-09
   9.745  0.138E-13  0.691E-14  0.691E-14
   9.747  0.103E-18  0.517E-19  0.517E-19
   9.749  0.765E-22  0.382E-22  0.382E-22
   9.751  0.579E-22  0.290E-22  0.290E-22
   9.753  0.747E-23  0.373E-23  0.373E-23
   9.755  0.216E-22  0.108E-22  0.108E-22
   9.757  0.407E-22  0.204E-22  0.204E-22
   9.759  0.184E-17  0.918E-18  0.918E-18
   9.761  0.153E-12  0.765E-13  0.765E-13
   9.763  0.172E-08  0.862E-09  0.862E-09
   9.765  0.263E-05  0.132E-05  0.132E-05
   9.767  0.544E-03  0.272E-03  0.272E-03
   9.769  0.152E-01  0.760E-02  0.760E-02
   9.771  0.575E-01  0.288E-01  0.288E-01
   9.773  0.295E-01  0.147E-01  0.147E-01
   9.775  0.332E-02  0.166E-02  0.166E-02
   9.777  0.378E-01  0.189E-01  0.189E-01
   9.779  0.151E+00  0.757E-01  0.757E-01
   9.781  0.820E-01  0.410E-01  0.410E-01
   9.783  0.601E-02  0.300E-02  0.300E-02
   9.785  0.596E-04  0.298E-04  0.298E-04
   9.787  0.296E-05  0.148E-05  0.148E-05
   9.789  0.831E-03  0.416E-03  0.416E-03
   9.791  0.363E-01  0.182E-01  0.182E-01
   9.793  0.248E+00  0.124E+00  0.124E+00
   9.795  0.264E+00  0.132E+00  0.132E+00
   9.797  0.421E-01  0.210E-01  0.210E-01
   9.799  0.969E-03  0.485E-03  0.485E-03
   9.801  0.260E-04  0.130E-04  0.130E-04
   9.803  0.358E-02  0.179E-02  0.179E-02
   9.805  0.759E-01  0.379E-01  0.379E-01
   9.807  0.217E+00  0.109E+00  0.109E+00
   9.809  0.909E-01  0.455E-01  0.455E-01
   9.811  0.488E-01  0.244E-01  0.244E-01
   9.813  0.404E-01  0.202E-01  0.202E-01
   9.815  0.496E-02  0.248E-02  0.248E-02
   9.817  0.826E-04  0.413E-04  0.413E-04
   9.819  0.987E-04  0.494E-04  0.494E-04
   9.821  0.108E-01  0.541E-02  0.541E-02
   9.823  0.161E+00  0.805E-01  0.805E-01
   9.825  0.324E+00  0.162E+00  0.162E+00
   9.827  0.929E-01  0.465E-01  0.465E-01
   9.829  0.689E-01  0.345E-01  0.345E-01
   9.831  0.379E+00  0.190E+00  0.190E+00
   9.833  0.661E+00  0.330E+00  0.330E+00
   9.835  0.181E+00  0.905E-01  0.905E-01
   9.837  0.686E-02  0.343E-02  0.343E-02
   9.839  0.356E-04  0.178E-04  0.178E-04
   9.841  0.252E-07  0.126E-07  0.126E-07
   9.843  0.988E-09  0.494E-09  0.494E-09
   9.845  0.255E-05  0.127E-05  0.127E-05
   9.847  0.892E-03  0.446E-03  0.446E-03
   9.849  0.422E-01  0.211E-01  0.211E-01
   9.851  0.271E+00  0.135E+00  0.135E+00
   9.853  0.245E+00  0.123E+00  0.123E+00
   9.855  0.748E-01  0.374E-01  0.374E-01
   9.857  0.292E-01  0.146E-01  0.146E-01
   9.859  0.163E-01  0.813E-02  0.813E-02
   9.861  0.182E+00  0.912E-01  0.912E-01
   9.863  0.323E+00  0.162E+00  0.162E+00
   9.865  0.776E-01  0.388E-01  0.388E-01
   9.867  0.252E-02  0.126E-02  0.126E-02
   9.869  0.112E-04  0.558E-05  0.558E-05
   9.871  0.441E-04  0.221E-04  0.221E-04
   9.873  0.321E-02  0.160E-02  0.160E-02
   9.875  0.348E-01  0.174E-01  0.174E-01
   9.877  0.158E+00  0.789E-01  0.789E-01
   9.879  0.608E+00  0.304E+00  0.304E+00
   9.881  0.598E+00  0.299E+00  0.299E+00
   9.883  0.133E+00  0.666E-01  0.666E-01
   9.885  0.575E-02  0.288E-02  0.288E-02
   9.887  0.389E-04  0.194E-04  0.194E-04
   9.889  0.372E-07  0.186E-07  0.186E-07
   9.891  0.489E-11  0.245E-11  0.245E-11
   9.893  0.157E-09  0.785E-10  0.785E-10
   9.895  0.396E-06  0.198E-06  0.198E-06
   9.897  0.135E-03  0.676E-04  0.676E-04
   9.899  0.624E-02  0.312E-02  0.312E-02
   9.901  0.390E-01  0.195E-01  0.195E-01
   9.903  0.330E-01  0.165E-01  0.165E-01
   9.905  0.378E-02  0.189E-02  0.189E-02
   9.907  0.822E-04  0.411E-04  0.411E-04
   9.909  0.419E-02  0.209E-02  0.209E-02
   9.911  0.101E+00  0.503E-01  0.503E-01
   9.913  0.329E+00  0.165E+00  0.165E+00
   9.915  0.215E+00  0.108E+00  0.108E+00
   9.917  0.316E+00  0.158E+00  0.158E+00
   9.919  0.179E+00  0.893E-01  0.893E-01
   9.921  0.148E-01  0.738E-02  0.738E-02
   9.923  0.133E-01  0.664E-02  0.664E-02
   9.925  0.336E-01  0.168E-01  0.168E-01
   9.927  0.116E-01  0.581E-02  0.581E-02
   9.929  0.543E-03  0.272E-03  0.272E-03
   9.931  0.344E-05  0.172E-05  0.172E-05
   9.933  0.295E-08  0.148E-08  0.148E-08
   9.935  0.343E-12  0.171E-12  0.171E-12
   9.937  0.538E-17  0.269E-17  0.269E-17
   9.939  0.593E-16  0.297E-16  0.297E-16
   9.941  0.263E-11  0.132E-11  0.132E-11
   9.943  0.159E-07  0.794E-08  0.794E-08
   9.945  0.133E-04  0.666E-05  0.666E-05
   9.947  0.170E-02  0.851E-03  0.851E-03
   9.949  0.429E-01  0.215E-01  0.215E-01
   9.951  0.262E+00  0.131E+00  0.131E+00
   9.953  0.307E+00  0.154E+00  0.154E+00
   9.955  0.543E-01  0.271E-01  0.271E-01
   9.957  0.133E-02  0.665E-03  0.665E-03
   9.959  0.443E-05  0.222E-05  0.222E-05
   9.961  0.200E-08  0.100E-08  0.100E-08
   9.963  0.166E-12  0.829E-13  0.829E-13
   9.965  0.528E-09  0.264E-09  0.264E-09
   9.967  0.866E-06  0.433E-06  0.433E-06
   9.969  0.192E-03  0.961E-04  0.961E-04
   9.971  0.578E-02  0.289E-02  0.289E-02
   9.973  0.235E-01  0.117E-01  0.117E-01
   9.975  0.135E-01  0.675E-02  0.675E-02
   9.977  0.301E-01  0.151E-01  0.151E-01
   9.979  0.226E+00  0.113E+00  0.113E+00
   9.981  0.372E+00  0.186E+00  0.186E+00
   9.983  0.159E+00  0.794E-01  0.794E-01
   9.985  0.129E-01  0.644E-02  0.644E-02
   9.987  0.154E-03  0.772E-04  0.772E-04
   9.989  0.424E-04  0.212E-04  0.212E-04
   9.991  0.625E-02  0.313E-02  0.313E-02
   9.993  0.140E+00  0.702E-01  0.702E-01
   9.995  0.529E+00  0.265E+00  0.265E+00
   9.997  0.356E+00  0.178E+00  0.178E+00
   9.999  0.448E-01  0.224E-01  0.224E-01
  10.001  0.327E-01  0.163E-01  0.163E-01
  10.003  0.294E-01  0.147E-01  0.147E-01
  10.005  0.366E-02  0.183E-02  0.183E-02
  10.007  0.618E-04  0.309E-04  0.309E-04
  10.009  0.141E-06  0.704E-07  0.704E-07
  10.011  0.449E-10  0.224E-10  0.224E-10
  10.013  0.816E-08  0.408E-08  0.408E-08
  10.015  0.628E-05  0.314E-05  0.314E-05
  10.017  0.653E-03  0.327E-03  0.327E-03
  10.019  0.920E-02  0.460E-02  0.460E-02
  10.021  0.175E-01  0.876E-02  0.876E-02
  10.023  0.452E-02  0.226E-02  0.226E-02
  10.025  0.158E-03  0.789E-04  0.789E-04
  10.027  0.746E-06  0.373E-06  0.373E-06
  10.029  0.477E-09  0.238E-09  0.238E-09
  10.031  0.415E-13  0.207E-13  0.207E-13
  10.033  0.639E-11  0.319E-11  0.319E-11
  10.035  0.287E-07  0.144E-07  0.144E-07
  10.037  0.193E-04  0.965E-05  0.965E-05
  10.039  0.236E-02  0.118E-02  0.118E-02
  10.041  0.641E-01  0.320E-01  0.320E-01
  10.043  0.339E+00  0.169E+00  0.169E+00
  10.045  0.278E+00  0.139E+00  0.139E+00
  10.047  0.320E-01  0.160E-01  0.160E-01
  10.049  0.509E-03  0.254E-03  0.254E-03
  10.051  0.762E-03  0.381E-03  0.381E-03
  10.053  0.144E-01  0.720E-02  0.720E-02
  10.055  0.435E-01  0.217E-01  0.217E-01
  10.057  0.199E-01  0.993E-02  0.993E-02
  10.059  0.133E-02  0.666E-03  0.666E-03
  10.061  0.220E-02  0.110E-02  0.110E-02
  10.063  0.249E-01  0.125E-01  0.125E-01
  10.065  0.441E-01  0.221E-01  0.221E-01
  10.067  0.205E-01  0.103E-01  0.103E-01
  10.069  0.336E-02  0.168E-02  0.168E-02
  10.071  0.104E-03  0.520E-04  0.520E-04
  10.073  0.458E-06  0.229E-06  0.229E-06
  10.075  0.275E-09  0.137E-09  0.137E-09
  10.077  0.223E-13  0.112E-13  0.112E-13
  10.079  0.245E-18  0.123E-18  0.123E-18
  10.081  0.641E-24  0.320E-24  0.320E-24
  10.083  0.327E-17  0.164E-17  0.164E-17
  10.085  0.331E-12  0.166E-12  0.166E-12
  10.087  0.455E-08  0.227E-08  0.227E-08
  10.089  0.844E-05  0.422E-05  0.422E-05
  10.091  0.212E-02  0.106E-02  0.106E-02
  10.093  0.721E-01  0.360E-01  0.360E-01
  10.095  0.332E+00  0.166E+00  0.166E+00
  10.097  0.207E+00  0.103E+00  0.103E+00
  10.099  0.177E-01  0.885E-02  0.885E-02
  10.101  0.961E-02  0.480E-02  0.480E-02
  10.103  0.400E-01  0.200E-01  0.200E-01
  10.105  0.230E-01  0.115E-01  0.115E-01
  10.107  0.275E-02  0.137E-02  0.137E-02
  10.109  0.168E-01  0.842E-02  0.842E-02
  10.111  0.427E-01  0.213E-01  0.213E-01
  10.113  0.161E-01  0.807E-02  0.807E-02
  10.115  0.941E-03  0.470E-03  0.470E-03
  10.117  0.849E-05  0.425E-05  0.425E-05
  10.119  0.116E-07  0.579E-08  0.579E-08
  10.121  0.229E-11  0.115E-11  0.115E-11
  10.123  0.639E-16  0.319E-16  0.319E-16
  10.125  0.181E-28  0.905E-29  0.905E-29
  10.127  0.105E-12  0.526E-13  0.526E-13
  10.129  0.239E-08  0.119E-08  0.119E-08
  10.131  0.732E-05  0.366E-05  0.366E-05
  10.133  0.304E-02  0.152E-02  0.152E-02
  10.135  0.171E+00  0.854E-01  0.854E-01
  10.137  0.130E+01  0.649E+00  0.649E+00
  10.139  0.134E+01  0.668E+00  0.668E+00
  10.141  0.186E+00  0.931E-01  0.931E-01
  10.143  0.351E-02  0.175E-02  0.175E-02
  10.145  0.866E-04  0.433E-04  0.433E-04
  10.147  0.958E-02  0.479E-02  0.479E-02
  10.149  0.160E+00  0.799E-01  0.799E-01
  10.151  0.361E+00  0.181E+00  0.181E+00
  10.153  0.111E+00  0.557E-01  0.557E-01
  10.155  0.178E-01  0.891E-02  0.891E-02
  10.157  0.434E-01  0.217E-01  0.217E-01
  10.159  0.270E-01  0.135E-01  0.135E-01
  10.161  0.252E-02  0.126E-02  0.126E-02
  10.163  0.296E-02  0.148E-02  0.148E-02
  10.165  0.912E-01  0.456E-01  0.456E-01
  10.167  0.454E+00  0.227E+00  0.227E+00
  10.169  0.404E+00  0.202E+00  0.202E+00
  10.171  0.810E-01  0.405E-01  0.405E-01
  10.173  0.190E+00  0.952E-01  0.952E-01
  10.175  0.450E+00  0.225E+00  0.225E+00
  10.177  0.287E+00  0.143E+00  0.143E+00
  10.179  0.560E-01  0.280E-01  0.280E-01
  10.181  0.324E-01  0.162E-01  0.162E-01
  10.183  0.692E-01  0.346E-01  0.346E-01
  10.185  0.242E+00  0.121E+00  0.121E+00
  10.187  0.349E+00  0.174E+00  0.174E+00
  10.189  0.953E-01  0.477E-01  0.477E-01
  10.191  0.458E-01  0.229E-01  0.229E-01
  10.193  0.151E+00  0.753E-01  0.753E-01
  10.195  0.167E+00  0.833E-01  0.833E-01
  10.197  0.126E+00  0.628E-01  0.628E-01
  10.199  0.129E+00  0.644E-01  0.644E-01
  10.201  0.271E+00  0.135E+00  0.135E+00
  10.203  0.103E+00  0.515E-01  0.515E-01
  10.205  0.815E-02  0.407E-02  0.407E-02
  10.207  0.890E-01  0.445E-01  0.445E-01
  10.209  0.462E+00  0.231E+00  0.231E+00
  10.211  0.370E+00  0.185E+00  0.185E+00
  10.213  0.561E-01  0.280E-01  0.280E-01
  10.215  0.214E-01  0.107E-01  0.107E-01
  10.217  0.270E-01  0.135E-01  0.135E-01
  10.219  0.173E+00  0.867E-01  0.867E-01
  10.221  0.267E+00  0.133E+00  0.133E+00
  10.223  0.145E+00  0.725E-01  0.725E-01
  10.225  0.100E+00  0.502E-01  0.502E-01
  10.227  0.397E+00  0.198E+00  0.198E+00
  10.229  0.356E+00  0.178E+00  0.178E+00
  10.231  0.227E+00  0.113E+00  0.113E+00
  10.233  0.872E-01  0.436E-01  0.436E-01
  10.235  0.791E-02  0.396E-02  0.396E-02
  10.237  0.165E-03  0.825E-04  0.825E-04
  10.239  0.354E-02  0.177E-02  0.177E-02
  10.241  0.100E+00  0.502E-01  0.502E-01
  10.243  0.472E+00  0.236E+00  0.236E+00
  10.245  0.525E+00  0.263E+00  0.263E+00
  10.247  0.287E+00  0.143E+00  0.143E+00
  10.249  0.465E-01  0.232E-01  0.232E-01
  10.251  0.683E-02  0.342E-02  0.342E-02
  10.253  0.150E-01  0.750E-02  0.750E-02
  10.255  0.100E+00  0.501E-01  0.501E-01
  10.257  0.184E+00  0.922E-01  0.922E-01
  10.259  0.675E-01  0.337E-01  0.337E-01
  10.261  0.913E-01  0.456E-01  0.456E-01
  10.263  0.618E-01  0.309E-01  0.309E-01
  10.265  0.819E-02  0.409E-02  0.409E-02
  10.267  0.178E-01  0.888E-02  0.888E-02
  10.269  0.234E+00  0.117E+00  0.117E+00
  10.271  0.570E+00  0.285E+00  0.285E+00
  10.273  0.256E+00  0.128E+00  0.128E+00
  10.275  0.186E-01  0.932E-02  0.932E-02
  10.277  0.199E-03  0.995E-04  0.995E-04
  10.279  0.308E-06  0.154E-06  0.154E-06
  10.281  0.612E-05  0.306E-05  0.306E-05
  10.283  0.143E-02  0.716E-03  0.716E-03
  10.285  0.458E-01  0.229E-01  0.229E-01
  10.287  0.204E+00  0.102E+00  0.102E+00
  10.289  0.132E+00  0.660E-01  0.660E-01
  10.291  0.164E-01  0.820E-02  0.820E-02
  10.293  0.138E-02  0.691E-03  0.691E-03
  10.295  0.677E-02  0.339E-02  0.339E-02
  10.297  0.485E-01  0.242E-01  0.242E-01
  10.299  0.104E+00  0.521E-01  0.521E-01
  10.301  0.262E+00  0.131E+00  0.131E+00
  10.303  0.150E+00  0.750E-01  0.750E-01
  10.305  0.124E-01  0.619E-02  0.619E-02
  10.307  0.139E-01  0.695E-02  0.695E-02
  10.309  0.645E-01  0.323E-01  0.323E-01
  10.311  0.409E-01  0.205E-01  0.205E-01
  10.313  0.351E-02  0.176E-02  0.176E-02
  10.315  0.408E-04  0.204E-04  0.204E-04
  10.317  0.785E-05  0.392E-05  0.392E-05
  10.319  0.165E-02  0.823E-03  0.823E-03
  10.321  0.471E-01  0.236E-01  0.236E-01
  10.323  0.183E+00  0.913E-01  0.913E-01
  10.325  0.959E-01  0.479E-01  0.479E-01
  10.327  0.733E-02  0.367E-02  0.367E-02
  10.329  0.351E-03  0.175E-03  0.175E-03
  10.331  0.262E-03  0.131E-03  0.131E-03
  10.333  0.243E-01  0.122E-01  0.122E-01
  10.335  0.332E+00  0.166E+00  0.166E+00
  10.337  0.617E+00  0.309E+00  0.309E+00
  10.339  0.156E+00  0.781E-01  0.781E-01
  10.341  0.539E-02  0.269E-02  0.269E-02
  10.343  0.438E-04  0.219E-04  0.219E-04
  10.345  0.169E-02  0.845E-03  0.845E-03
  10.347  0.409E-01  0.205E-01  0.205E-01
  10.349  0.297E+00  0.148E+00  0.148E+00
  10.351  0.384E+00  0.192E+00  0.192E+00
  10.353  0.710E-01  0.355E-01  0.355E-01
  10.355  0.185E-02  0.924E-03  0.924E-03
  10.357  0.600E-03  0.300E-03  0.300E-03
  10.359  0.189E-01  0.944E-02  0.944E-02
  10.361  0.171E+00  0.854E-01  0.854E-01
  10.363  0.225E+00  0.113E+00  0.113E+00
  10.365  0.977E-01  0.489E-01  0.489E-01
  10.367  0.474E-01  0.237E-01  0.237E-01
  10.369  0.115E+00  0.577E-01  0.577E-01
  10.371  0.417E+00  0.208E+00  0.208E+00
  10.373  0.481E+00  0.240E+00  0.240E+00
  10.375  0.367E+00  0.184E+00  0.184E+00
  10.377  0.197E+00  0.983E-01  0.983E-01
  10.379  0.247E-01  0.123E-01  0.123E-01
  10.381  0.104E-02  0.520E-03  0.520E-03
  10.383  0.247E-02  0.123E-02  0.123E-02
  10.385  0.198E-02  0.989E-03  0.989E-03
  10.387  0.217E-03  0.109E-03  0.109E-03
  10.389  0.721E-04  0.360E-04  0.360E-04
  10.391  0.336E-03  0.168E-03  0.168E-03
  10.393  0.221E-03  0.111E-03  0.111E-03
  10.395  0.197E-04  0.987E-05  0.987E-05
  10.397  0.485E-06  0.243E-06  0.243E-06
  10.399  0.177E-03  0.886E-04  0.886E-04
  10.401  0.173E-01  0.863E-02  0.863E-02
  10.403  0.229E+00  0.114E+00  0.114E+00
  10.405  0.440E+00  0.220E+00  0.220E+00
  10.407  0.300E+00  0.150E+00  0.150E+00
  10.409  0.179E+00  0.893E-01  0.893E-01
  10.411  0.218E-01  0.109E-01  0.109E-01
  10.413  0.128E-01  0.638E-02  0.638E-02
  10.415  0.241E-01  0.120E-01  0.120E-01
  10.417  0.890E-01  0.445E-01  0.445E-01
  10.419  0.250E+00  0.125E+00  0.125E+00
  10.421  0.998E-01  0.499E-01  0.499E-01
  10.423  0.542E-02  0.271E-02  0.271E-02
  10.425  0.222E-02  0.111E-02  0.111E-02
  10.427  0.283E-01  0.141E-01  0.141E-01
  10.429  0.507E-01  0.254E-01  0.254E-01
  10.431  0.164E-01  0.818E-02  0.818E-02
  10.433  0.650E-02  0.325E-02  0.325E-02
  10.435  0.154E-02  0.772E-03  0.772E-03
  10.437  0.602E-04  0.301E-04  0.301E-04
  10.439  0.476E-06  0.238E-06  0.238E-06
  10.441  0.509E-06  0.255E-06  0.255E-06
  10.443  0.227E-05  0.113E-05  0.113E-05
  10.445  0.685E-05  0.343E-05  0.343E-05
  10.447  0.736E-05  0.368E-05  0.368E-05
  10.449  0.377E-05  0.189E-05  0.189E-05
  10.451  0.648E-05  0.324E-05  0.324E-05
  10.453  0.142E-02  0.711E-03  0.711E-03
  10.455  0.491E-01  0.246E-01  0.246E-01
  10.457  0.230E+00  0.115E+00  0.115E+00
  10.459  0.152E+00  0.762E-01  0.762E-01
  10.461  0.240E-01  0.120E-01  0.120E-01
  10.463  0.245E-01  0.122E-01  0.122E-01
  10.465  0.185E+00  0.925E-01  0.925E-01
  10.467  0.218E+00  0.109E+00  0.109E+00
  10.469  0.510E-01  0.255E-01  0.255E-01
  10.471  0.107E-01  0.533E-02  0.533E-02
  10.473  0.994E-01  0.497E-01  0.497E-01
  10.475  0.405E+00  0.202E+00  0.202E+00
  10.477  0.228E+00  0.114E+00  0.114E+00
  10.479  0.375E-01  0.187E-01  0.187E-01
  10.481  0.536E-01  0.268E-01  0.268E-01
  10.483  0.303E+00  0.151E+00  0.151E+00
  10.485  0.306E+00  0.153E+00  0.153E+00
  10.487  0.420E-01  0.210E-01  0.210E-01
  10.489  0.780E-03  0.390E-03  0.390E-03
  10.491  0.110E-04  0.548E-05  0.548E-05
  10.493  0.417E-03  0.209E-03  0.209E-03
  10.495  0.110E-01  0.549E-02  0.549E-02
  10.497  0.435E-01  0.217E-01  0.217E-01
  10.499  0.235E-01  0.117E-01  0.117E-01
  10.501  0.317E-02  0.158E-02  0.158E-02
  10.503  0.594E-02  0.297E-02  0.297E-02
  10.505  0.112E+00  0.558E-01  0.558E-01
  10.507  0.575E+00  0.287E+00  0.287E+00
  10.509  0.490E+00  0.245E+00  0.245E+00
  10.511  0.284E+00  0.142E+00  0.142E+00
  10.513  0.164E+00  0.822E-01  0.822E-01
  10.515  0.108E+00  0.541E-01  0.541E-01
  10.517  0.259E+00  0.130E+00  0.130E+00
  10.519  0.972E-01  0.486E-01  0.486E-01
  10.521  0.494E-02  0.247E-02  0.247E-02
  10.523  0.386E-04  0.193E-04  0.193E-04
  10.525  0.721E-04  0.360E-04  0.360E-04
  10.527  0.513E-03  0.256E-03  0.256E-03
  10.529  0.175E-02  0.875E-03  0.875E-03
  10.531  0.101E-02  0.506E-03  0.506E-03
  10.533  0.926E-04  0.463E-04  0.463E-04
  10.535  0.286E-05  0.143E-05  0.143E-05
  10.537  0.179E-03  0.895E-04  0.895E-04
  10.539  0.477E-02  0.238E-02  0.238E-02
  10.541  0.174E-01  0.869E-02  0.869E-02
  10.543  0.148E-01  0.738E-02  0.738E-02
  10.545  0.400E-01  0.200E-01  0.200E-01
  10.547  0.207E+00  0.104E+00  0.104E+00
  10.549  0.435E+00  0.217E+00  0.217E+00
  10.551  0.135E+00  0.673E-01  0.673E-01
  10.553  0.657E-02  0.328E-02  0.328E-02
  10.555  0.221E-03  0.111E-03  0.111E-03
  10.557  0.514E-05  0.257E-05  0.257E-05
  10.559  0.146E-05  0.732E-06  0.732E-06
  10.561  0.289E-04  0.144E-04  0.144E-04
  10.563  0.171E-03  0.856E-04  0.856E-04
  10.565  0.778E-03  0.389E-03  0.389E-03
  10.567  0.306E-01  0.153E-01  0.153E-01
  10.569  0.265E+00  0.132E+00  0.132E+00
  10.571  0.479E+00  0.239E+00  0.239E+00
  10.573  0.216E+00  0.108E+00  0.108E+00
  10.575  0.194E-01  0.969E-02  0.969E-02
  10.577  0.893E-03  0.447E-03  0.447E-03
  10.579  0.155E-02  0.777E-03  0.777E-03
  10.581  0.631E-03  0.316E-03  0.316E-03
  10.583  0.348E-04  0.174E-04  0.174E-04
  10.585  0.259E-06  0.130E-06  0.130E-06
  10.587  0.278E-09  0.139E-09  0.139E-09
  10.589  0.127E-07  0.636E-08  0.636E-08
  10.591  0.205E-05  0.103E-05  0.103E-05
  10.593  0.725E-04  0.363E-04  0.363E-04
  10.595  0.787E-03  0.393E-03  0.393E-03
  10.597  0.220E-02  0.110E-02  0.110E-02
  10.599  0.109E-02  0.544E-03  0.544E-03
  10.601  0.118E-03  0.590E-04  0.590E-04
  10.603  0.618E-05  0.309E-05  0.309E-05
  10.605  0.657E-04  0.329E-04  0.329E-04
  10.607  0.312E-03  0.156E-03  0.156E-03
  10.609  0.110E-02  0.552E-03  0.552E-03
  10.611  0.101E-01  0.505E-02  0.505E-02
  10.613  0.150E-01  0.751E-02  0.751E-02
  10.615  0.305E-02  0.152E-02  0.152E-02
  10.617  0.153E-02  0.767E-03  0.767E-03
  10.619  0.129E-01  0.643E-02  0.643E-02
  10.621  0.655E-01  0.327E-01  0.327E-01
  10.623  0.517E+00  0.259E+00  0.259E+00
  10.625  0.746E+00  0.373E+00  0.373E+00
  10.627  0.185E+00  0.926E-01  0.926E-01
  10.629  0.231E+00  0.116E+00  0.116E+00
  10.631  0.384E+00  0.192E+00  0.192E+00
  10.633  0.289E+00  0.145E+00  0.145E+00
  10.635  0.553E-01  0.276E-01  0.276E-01
  10.637  0.168E-02  0.840E-03  0.840E-03
  10.639  0.174E-03  0.868E-04  0.868E-04
  10.641  0.234E-02  0.117E-02  0.117E-02
  10.643  0.730E-01  0.365E-01  0.365E-01
  10.645  0.357E+00  0.179E+00  0.179E+00
  10.647  0.473E+00  0.236E+00  0.236E+00
  10.649  0.298E+00  0.149E+00  0.149E+00
  10.651  0.498E-01  0.249E-01  0.249E-01
  10.653  0.242E-02  0.121E-02  0.121E-02
  10.655  0.402E-03  0.201E-03  0.201E-03
  10.657  0.599E-04  0.299E-04  0.299E-04
  10.659  0.133E-04  0.667E-05  0.667E-05
  10.661  0.407E-05  0.203E-05  0.203E-05
  10.663  0.236E-06  0.118E-06  0.118E-06
  10.665  0.600E-08  0.300E-08  0.300E-08
  10.667  0.267E-06  0.134E-06  0.134E-06
  10.669  0.248E-05  0.124E-05  0.124E-05
  10.671  0.375E-05  0.187E-05  0.187E-05
  10.673  0.244E-05  0.122E-05  0.122E-05
  10.675  0.102E-03  0.510E-04  0.510E-04
  10.677  0.291E-02  0.146E-02  0.146E-02
  10.679  0.143E-01  0.716E-02  0.716E-02
  10.681  0.106E-01  0.531E-02  0.531E-02
  10.683  0.111E-02  0.556E-03  0.556E-03
  10.685  0.177E-04  0.887E-05  0.887E-05
  10.687  0.594E-03  0.297E-03  0.297E-03
  10.689  0.310E-01  0.155E-01  0.155E-01
  10.691  0.218E+00  0.109E+00  0.109E+00
  10.693  0.208E+00  0.104E+00  0.104E+00
  10.695  0.346E-01  0.173E-01  0.173E-01
  10.697  0.129E+00  0.643E-01  0.643E-01
  10.699  0.310E+00  0.155E+00  0.155E+00
  10.701  0.350E+00  0.175E+00  0.175E+00
  10.703  0.464E+00  0.232E+00  0.232E+00
  10.705  0.119E+00  0.597E-01  0.597E-01
  10.707  0.576E-02  0.288E-02  0.288E-02
  10.709  0.851E-04  0.425E-04  0.425E-04
  10.711  0.782E-04  0.391E-04  0.391E-04
  10.713  0.409E-03  0.205E-03  0.205E-03
  10.715  0.438E-02  0.219E-02  0.219E-02
  10.717  0.810E-02  0.405E-02  0.405E-02
  10.719  0.230E-02  0.115E-02  0.115E-02
  10.721  0.572E-03  0.286E-03  0.286E-03
  10.723  0.679E-03  0.339E-03  0.339E-03
  10.725  0.371E-03  0.186E-03  0.186E-03
  10.727  0.118E-02  0.588E-03  0.588E-03
  10.729  0.634E-02  0.317E-02  0.317E-02
  10.731  0.271E-01  0.135E-01  0.135E-01
  10.733  0.176E-01  0.880E-02  0.880E-02
  10.735  0.265E-02  0.133E-02  0.133E-02
  10.737  0.860E-03  0.430E-03  0.430E-03
  10.739  0.964E-04  0.482E-04  0.482E-04
  10.741  0.543E-04  0.272E-04  0.272E-04
  10.743  0.277E-03  0.138E-03  0.138E-03
  10.745  0.372E-02  0.186E-02  0.186E-02
  10.747  0.132E-01  0.662E-02  0.662E-02
  10.749  0.661E-02  0.330E-02  0.330E-02
  10.751  0.331E-02  0.165E-02  0.165E-02
  10.753  0.122E-01  0.610E-02  0.610E-02
  10.755  0.744E-01  0.372E-01  0.372E-01
  10.757  0.270E+00  0.135E+00  0.135E+00
  10.759  0.146E+00  0.731E-01  0.731E-01
  10.761  0.108E-01  0.539E-02  0.539E-02
  10.763  0.529E-03  0.265E-03  0.265E-03
  10.765  0.332E-01  0.166E-01  0.166E-01
  10.767  0.379E+00  0.189E+00  0.189E+00
  10.769  0.620E+00  0.310E+00  0.310E+00
  10.771  0.149E+00  0.743E-01  0.743E-01
  10.773  0.916E-02  0.458E-02  0.458E-02
  10.775  0.176E-02  0.880E-03  0.880E-03
  10.777  0.103E-02  0.514E-03  0.514E-03
  10.779  0.372E-01  0.186E-01  0.186E-01
  10.781  0.390E+00  0.195E+00  0.195E+00
  10.783  0.722E+00  0.361E+00  0.361E+00
  10.785  0.293E+00  0.146E+00  0.146E+00
  10.787  0.331E-01  0.166E-01  0.166E-01
  10.789  0.153E+00  0.764E-01  0.764E-01
  10.791  0.343E+00  0.171E+00  0.171E+00
  10.793  0.115E+00  0.577E-01  0.577E-01
  10.795  0.136E-01  0.680E-02  0.680E-02
  10.797  0.273E-02  0.137E-02  0.137E-02
  10.799  0.384E-02  0.192E-02  0.192E-02
  10.801  0.577E-02  0.289E-02  0.289E-02
  10.803  0.130E-02  0.650E-03  0.650E-03
  10.805  0.880E-03  0.440E-03  0.440E-03
  10.807  0.315E-02  0.158E-02  0.158E-02
  10.809  0.935E-02  0.467E-02  0.467E-02
  10.811  0.965E-02  0.482E-02  0.482E-02
  10.813  0.946E-02  0.473E-02  0.473E-02
  10.815  0.207E-01  0.104E-01  0.104E-01
  10.817  0.290E-01  0.145E-01  0.145E-01
  10.819  0.170E-01  0.850E-02  0.850E-02
  10.821  0.906E-02  0.453E-02  0.453E-02
  10.823  0.228E-01  0.114E-01  0.114E-01
  10.825  0.197E+00  0.983E-01  0.983E-01
  10.827  0.244E+00  0.122E+00  0.122E+00
  10.829  0.410E-01  0.205E-01  0.205E-01
  10.831  0.932E-03  0.466E-03  0.466E-03
  10.833  0.436E-05  0.218E-05  0.218E-05
  10.835  0.338E-04  0.169E-04  0.169E-04
  10.837  0.716E-03  0.358E-03  0.358E-03
  10.839  0.326E-01  0.163E-01  0.163E-01
  10.841  0.240E+00  0.120E+00  0.120E+00
  10.843  0.240E+00  0.120E+00  0.120E+00
  10.845  0.345E-01  0.172E-01  0.172E-01
  10.847  0.112E-01  0.559E-02  0.559E-02
  10.849  0.778E-02  0.389E-02  0.389E-02
  10.851  0.105E-02  0.523E-03  0.523E-03
  10.853  0.567E-03  0.283E-03  0.283E-03
  10.855  0.275E-03  0.138E-03  0.138E-03
  10.857  0.940E-03  0.470E-03  0.470E-03
  10.859  0.723E-02  0.362E-02  0.362E-02
  10.861  0.149E+00  0.746E-01  0.746E-01
  10.863  0.514E+00  0.257E+00  0.257E+00
  10.865  0.248E+00  0.124E+00  0.124E+00
  10.867  0.274E-01  0.137E-01  0.137E-01
  10.869  0.667E-02  0.334E-02  0.334E-02
  10.871  0.910E-03  0.455E-03  0.455E-03
  10.873  0.199E-03  0.995E-04  0.995E-04
  10.875  0.229E-02  0.115E-02  0.115E-02
  10.877  0.128E-01  0.640E-02  0.640E-02
  10.879  0.150E-01  0.749E-02  0.749E-02
  10.881  0.186E-01  0.931E-02  0.931E-02
  10.883  0.191E-01  0.957E-02  0.957E-02
  10.885  0.808E-02  0.404E-02  0.404E-02
  10.887  0.620E-03  0.310E-03  0.310E-03
  10.889  0.378E-04  0.189E-04  0.189E-04
  10.891  0.365E-03  0.183E-03  0.183E-03
  10.893  0.840E-03  0.420E-03  0.420E-03
  10.895  0.193E-01  0.964E-02  0.964E-02
  10.897  0.190E+00  0.952E-01  0.952E-01
  10.899  0.256E+00  0.128E+00  0.128E+00
  10.901  0.472E-01  0.236E-01  0.236E-01
  10.903  0.673E-02  0.336E-02  0.336E-02
  10.905  0.214E-01  0.107E-01  0.107E-01
  10.907  0.144E-01  0.721E-02  0.721E-02
  10.909  0.146E-01  0.728E-02  0.728E-02
  10.911  0.220E-01  0.110E-01  0.110E-01
  10.913  0.138E+00  0.692E-01  0.692E-01
  10.915  0.393E+00  0.196E+00  0.196E+00
  10.917  0.373E+00  0.187E+00  0.187E+00
  10.919  0.356E+00  0.178E+00  0.178E+00
  10.921  0.372E+00  0.186E+00  0.186E+00
  10.923  0.174E+00  0.872E-01  0.872E-01
  10.925  0.226E-01  0.113E-01  0.113E-01
  10.927  0.504E-02  0.252E-02  0.252E-02
  10.929  0.746E-03  0.373E-03  0.373E-03
  10.931  0.836E-02  0.418E-02  0.418E-02
  10.933  0.143E+00  0.716E-01  0.716E-01
  10.935  0.334E+00  0.167E+00  0.167E+00
  10.937  0.106E+00  0.529E-01  0.529E-01
  10.939  0.471E-02  0.235E-02  0.235E-02
  10.941  0.134E-01  0.670E-02  0.670E-02
  10.943  0.238E+00  0.119E+00  0.119E+00
  10.945  0.575E+00  0.287E+00  0.287E+00
  10.947  0.189E+00  0.947E-01  0.947E-01
  10.949  0.861E-02  0.430E-02  0.430E-02
  10.951  0.277E-03  0.139E-03  0.139E-03
  10.953  0.202E-03  0.101E-03  0.101E-03
  10.955  0.631E-03  0.315E-03  0.315E-03
  10.957  0.281E-02  0.140E-02  0.140E-02
  10.959  0.442E-02  0.221E-02  0.221E-02
  10.961  0.158E-02  0.791E-03  0.791E-03
  10.963  0.873E-03  0.436E-03  0.436E-03
  10.965  0.267E-03  0.134E-03  0.134E-03
  10.967  0.209E-04  0.104E-04  0.104E-04
  10.969  0.203E-02  0.101E-02  0.101E-02
  10.971  0.647E-01  0.324E-01  0.324E-01
  10.973  0.281E+00  0.140E+00  0.140E+00
  10.975  0.173E+00  0.864E-01  0.864E-01
  10.977  0.312E-01  0.156E-01  0.156E-01
  10.979  0.223E-01  0.111E-01  0.111E-01
  10.981  0.330E-01  0.165E-01  0.165E-01
  10.983  0.241E-01  0.121E-01  0.121E-01
  10.985  0.285E-02  0.142E-02  0.142E-02
  10.987  0.461E-03  0.230E-03  0.230E-03
  10.989  0.142E-02  0.711E-03  0.711E-03
  10.991  0.117E-02  0.586E-03  0.586E-03
  10.993  0.163E-01  0.817E-02  0.817E-02
  10.995  0.198E+00  0.989E-01  0.989E-01
  10.997  0.327E+00  0.164E+00  0.164E+00
  10.999  0.734E-01  0.367E-01  0.367E-01
  11.001  0.237E-02  0.119E-02  0.119E-02
  11.003  0.132E-02  0.660E-03  0.660E-03
  11.005  0.348E-02  0.174E-02  0.174E-02
  11.007  0.760E-02  0.380E-02  0.380E-02
  11.009  0.400E-02  0.200E-02  0.200E-02
  11.011  0.297E-03  0.148E-03  0.148E-03
  11.013  0.302E-05  0.151E-05  0.151E-05
  11.015  0.632E-05  0.316E-05  0.316E-05
  11.017  0.428E-03  0.214E-03  0.214E-03
  11.019  0.785E-02  0.393E-02  0.393E-02
  11.021  0.227E-01  0.114E-01  0.114E-01
  11.023  0.576E-01  0.288E-01  0.288E-01
  11.025  0.422E+00  0.211E+00  0.211E+00
  11.027  0.490E+00  0.245E+00  0.245E+00
  11.029  0.775E-01  0.388E-01  0.388E-01
  11.031  0.349E-02  0.175E-02  0.175E-02
  11.033  0.924E-02  0.462E-02  0.462E-02
  11.035  0.206E-01  0.103E-01  0.103E-01
  11.037  0.183E-01  0.916E-02  0.916E-02
  11.039  0.993E-02  0.497E-02  0.497E-02
  11.041  0.105E-02  0.527E-03  0.527E-03
  11.043  0.302E-03  0.151E-03  0.151E-03
  11.045  0.133E-02  0.663E-03  0.663E-03
  11.047  0.297E-02  0.149E-02  0.149E-02
  11.049  0.604E-01  0.302E-01  0.302E-01
  11.051  0.280E+00  0.140E+00  0.140E+00
  11.053  0.186E+00  0.928E-01  0.928E-01
  11.055  0.173E+00  0.863E-01  0.863E-01
  11.057  0.329E+00  0.165E+00  0.165E+00
  11.059  0.105E+00  0.523E-01  0.523E-01
  11.061  0.179E+00  0.896E-01  0.896E-01
  11.063  0.375E+00  0.188E+00  0.188E+00
  11.065  0.115E+00  0.574E-01  0.574E-01
  11.067  0.737E-02  0.369E-02  0.369E-02
  11.069  0.101E-01  0.503E-02  0.503E-02
  11.071  0.979E-02  0.490E-02  0.490E-02
  11.073  0.139E-01  0.697E-02  0.697E-02
  11.075  0.177E+00  0.885E-01  0.885E-01
  11.077  0.441E+00  0.220E+00  0.220E+00
  11.079  0.417E+00  0.209E+00  0.209E+00
  11.081  0.135E+00  0.674E-01  0.674E-01
  11.083  0.804E-02  0.402E-02  0.402E-02
  11.085  0.297E-03  0.149E-03  0.149E-03
  11.087  0.481E-02  0.240E-02  0.240E-02
  11.089  0.320E-01  0.160E-01  0.160E-01
  11.091  0.397E-01  0.199E-01  0.199E-01
  11.093  0.219E-01  0.110E-01  0.110E-01
  11.095  0.445E-02  0.223E-02  0.223E-02
  11.097  0.459E-03  0.229E-03  0.229E-03
  11.099  0.280E-03  0.140E-03  0.140E-03
  11.101  0.457E-02  0.228E-02  0.228E-02
  11.103  0.144E+00  0.721E-01  0.721E-01
  11.105  0.621E+00  0.311E+00  0.311E+00
  11.107  0.362E+00  0.181E+00  0.181E+00
  11.109  0.288E-01  0.144E-01  0.144E-01
  11.111  0.148E-02  0.742E-03  0.742E-03
  11.113  0.212E-02  0.106E-02  0.106E-02
  11.115  0.455E-02  0.228E-02  0.228E-02
  11.117  0.188E-02  0.940E-03  0.940E-03
  11.119  0.112E-03  0.561E-04  0.561E-04
  11.121  0.994E-06  0.497E-06  0.497E-06
  11.123  0.153E-05  0.765E-06  0.765E-06
  11.125  0.839E-04  0.419E-04  0.419E-04
  11.127  0.917E-03  0.458E-03  0.458E-03
  11.129  0.220E-01  0.110E-01  0.110E-01
  11.131  0.205E+00  0.102E+00  0.102E+00
  11.133  0.266E+00  0.133E+00  0.133E+00
  11.135  0.476E-01  0.238E-01  0.238E-01
  11.137  0.134E-02  0.669E-03  0.669E-03
  11.139  0.494E-03  0.247E-03  0.247E-03
  11.141  0.495E-02  0.247E-02  0.247E-02
  11.143  0.245E-01  0.122E-01  0.122E-01
  11.145  0.302E-01  0.151E-01  0.151E-01
  11.147  0.245E-01  0.123E-01  0.123E-01
  11.149  0.212E-01  0.106E-01  0.106E-01
  11.151  0.205E-01  0.103E-01  0.103E-01
  11.153  0.556E-02  0.278E-02  0.278E-02
  11.155  0.556E-01  0.278E-01  0.278E-01
  11.157  0.300E+00  0.150E+00  0.150E+00
  11.159  0.229E+00  0.114E+00  0.114E+00
  11.161  0.269E-01  0.134E-01  0.134E-01
  11.163  0.122E-01  0.611E-02  0.611E-02
  11.165  0.599E-02  0.299E-02  0.299E-02
  11.167  0.408E-03  0.204E-03  0.204E-03
  11.169  0.694E-05  0.347E-05  0.347E-05
  11.171  0.184E-04  0.922E-05  0.922E-05
  11.173  0.170E-04  0.852E-05  0.852E-05
  11.175  0.112E-02  0.560E-03  0.560E-03
  11.177  0.654E-01  0.327E-01  0.327E-01
  11.179  0.518E+00  0.259E+00  0.259E+00
  11.181  0.556E+00  0.278E+00  0.278E+00
  11.183  0.839E-01  0.419E-01  0.419E-01
  11.185  0.293E-01  0.146E-01  0.146E-01
  11.187  0.202E+00  0.101E+00  0.101E+00
  11.189  0.317E+00  0.159E+00  0.159E+00
  11.191  0.716E-01  0.358E-01  0.358E-01
  11.193  0.429E-02  0.215E-02  0.215E-02
  11.195  0.269E-01  0.134E-01  0.134E-01
  11.197  0.564E-01  0.282E-01  0.282E-01
  11.199  0.384E-01  0.192E-01  0.192E-01
  11.201  0.124E-01  0.622E-02  0.622E-02
  11.203  0.757E-03  0.379E-03  0.379E-03
  11.205  0.432E-03  0.216E-03  0.216E-03
  11.207  0.192E-01  0.958E-02  0.958E-02
  11.209  0.210E+00  0.105E+00  0.105E+00
  11.211  0.328E+00  0.164E+00  0.164E+00
  11.213  0.150E+00  0.750E-01  0.750E-01
  11.215  0.302E+00  0.151E+00  0.151E+00
  11.217  0.149E+00  0.745E-01  0.745E-01
  11.219  0.241E-01  0.120E-01  0.120E-01
  11.221  0.181E+00  0.903E-01  0.903E-01
  11.223  0.314E+00  0.157E+00  0.157E+00
  11.225  0.739E-01  0.370E-01  0.370E-01
  11.227  0.235E-02  0.118E-02  0.118E-02
  11.229  0.101E-04  0.507E-05  0.507E-05
  11.231  0.322E-06  0.161E-06  0.161E-06
  11.233  0.193E-03  0.967E-04  0.967E-04
  11.235  0.167E-01  0.833E-02  0.833E-02
  11.237  0.198E+00  0.991E-01  0.991E-01
  11.239  0.323E+00  0.162E+00  0.162E+00
  11.241  0.843E-01  0.421E-01  0.421E-01
  11.243  0.270E+00  0.135E+00  0.135E+00
  11.245  0.775E+00  0.387E+00  0.387E+00
  11.247  0.321E+00  0.161E+00  0.161E+00
  11.249  0.563E-01  0.282E-01  0.282E-01
  11.251  0.375E-01  0.188E-01  0.188E-01
  11.253  0.146E-01  0.731E-02  0.731E-02
  11.255  0.126E-01  0.629E-02  0.629E-02
  11.257  0.629E-02  0.315E-02  0.315E-02
  11.259  0.171E-02  0.856E-03  0.856E-03
  11.261  0.243E-02  0.121E-02  0.121E-02
  11.263  0.622E-03  0.311E-03  0.311E-03
  11.265  0.216E-04  0.108E-04  0.108E-04
  11.267  0.146E-06  0.729E-07  0.729E-07
  11.269  0.872E-05  0.436E-05  0.436E-05
  11.271  0.246E-03  0.123E-03  0.123E-03
  11.273  0.949E-03  0.474E-03  0.474E-03
  11.275  0.498E-03  0.249E-03  0.249E-03
  11.277  0.354E-04  0.177E-04  0.177E-04
  11.279  0.378E-04  0.189E-04  0.189E-04
  11.281  0.182E-02  0.911E-03  0.911E-03
  11.283  0.120E-01  0.599E-02  0.599E-02
  11.285  0.107E-01  0.535E-02  0.535E-02
  11.287  0.411E-02  0.205E-02  0.205E-02
  11.289  0.986E-01  0.493E-01  0.493E-01
  11.291  0.657E+00  0.328E+00  0.328E+00
  11.293  0.647E+00  0.324E+00  0.324E+00
  11.295  0.898E-01  0.449E-01  0.449E-01
  11.297  0.425E-01  0.212E-01  0.212E-01
  11.299  0.262E+00  0.131E+00  0.131E+00
  11.301  0.298E+00  0.149E+00  0.149E+00
  11.303  0.717E-01  0.358E-01  0.358E-01
  11.305  0.193E-01  0.964E-02  0.964E-02
  11.307  0.284E+00  0.142E+00  0.142E+00
  11.309  0.152E+01  0.761E+00  0.761E+00
  11.311  0.114E+01  0.568E+00  0.568E+00
  11.313  0.733E+00  0.367E+00  0.367E+00
  11.315  0.223E+01  0.112E+01  0.112E+01
  11.317  0.114E+01  0.571E+00  0.571E+00
  11.319  0.830E-01  0.415E-01  0.415E-01
  11.321  0.845E-03  0.423E-03  0.423E-03
  11.323  0.120E-05  0.599E-06  0.599E-06
  11.325  0.253E-05  0.127E-05  0.127E-05
  11.327  0.128E-02  0.639E-03  0.639E-03
  11.329  0.921E-01  0.460E-01  0.460E-01
  11.331  0.976E+00  0.488E+00  0.488E+00
  11.333  0.156E+01  0.781E+00  0.781E+00
  11.335  0.379E+00  0.190E+00  0.190E+00
  11.337  0.180E-01  0.899E-02  0.899E-02
  11.339  0.200E-01  0.100E-01  0.100E-01
  11.341  0.142E-01  0.709E-02  0.709E-02
  11.343  0.131E-01  0.654E-02  0.654E-02
  11.345  0.687E-01  0.343E-01  0.343E-01
  11.347  0.899E-01  0.450E-01  0.450E-01
  11.349  0.534E-01  0.267E-01  0.267E-01
  11.351  0.484E-01  0.242E-01  0.242E-01
  11.353  0.355E-01  0.177E-01  0.177E-01
  11.355  0.178E+00  0.891E-01  0.891E-01
  11.357  0.484E+00  0.242E+00  0.242E+00
  11.359  0.120E+01  0.602E+00  0.602E+00
  11.361  0.145E+01  0.723E+00  0.723E+00
  11.363  0.500E+00  0.250E+00  0.250E+00
  11.365  0.327E+00  0.163E+00  0.163E+00
  11.367  0.112E+00  0.559E-01  0.559E-01
  11.369  0.275E-01  0.137E-01  0.137E-01
  11.371  0.205E-02  0.102E-02  0.102E-02
  11.373  0.286E-04  0.143E-04  0.143E-04
  11.375  0.127E-06  0.636E-07  0.636E-07
  11.377  0.372E-06  0.186E-06  0.186E-06
  11.379  0.931E-04  0.466E-04  0.466E-04
  11.381  0.411E-02  0.205E-02  0.205E-02
  11.383  0.609E-01  0.305E-01  0.305E-01
  11.385  0.269E+00  0.135E+00  0.135E+00
  11.387  0.205E+00  0.102E+00  0.102E+00
  11.389  0.363E-01  0.182E-01  0.182E-01
  11.391  0.339E-02  0.169E-02  0.169E-02
  11.393  0.670E-02  0.335E-02  0.335E-02
  11.395  0.245E+00  0.122E+00  0.122E+00
  11.397  0.143E+01  0.714E+00  0.714E+00
  11.399  0.127E+01  0.636E+00  0.636E+00
  11.401  0.204E+00  0.102E+00  0.102E+00
  11.403  0.253E-01  0.127E-01  0.127E-01
  11.405  0.173E+00  0.864E-01  0.864E-01
  11.407  0.288E+00  0.144E+00  0.144E+00
  11.409  0.650E-01  0.325E-01  0.325E-01
  11.411  0.199E-02  0.996E-03  0.996E-03
  11.413  0.232E-04  0.116E-04  0.116E-04
  11.415  0.245E-04  0.122E-04  0.122E-04
  11.417  0.678E-04  0.339E-04  0.339E-04
  11.419  0.295E-04  0.148E-04  0.148E-04
  11.421  0.174E-05  0.872E-06  0.872E-06
  11.423  0.664E-06  0.332E-06  0.332E-06
  11.425  0.920E-04  0.460E-04  0.460E-04
  11.427  0.244E-02  0.122E-02  0.122E-02
  11.429  0.147E-01  0.735E-02  0.735E-02
  11.431  0.621E-01  0.311E-01  0.311E-01
  11.433  0.287E+00  0.143E+00  0.143E+00
  11.435  0.240E+00  0.120E+00  0.120E+00
  11.437  0.380E-01  0.190E-01  0.190E-01
  11.439  0.121E-01  0.606E-02  0.606E-02
  11.441  0.269E+00  0.135E+00  0.135E+00
  11.443  0.121E+01  0.604E+00  0.604E+00
  11.445  0.125E+01  0.627E+00  0.627E+00
  11.447  0.354E+00  0.177E+00  0.177E+00
  11.449  0.430E-01  0.215E-01  0.215E-01
  11.451  0.253E-02  0.126E-02  0.126E-02
  11.453  0.533E-03  0.266E-03  0.266E-03
  11.455  0.120E-02  0.599E-03  0.599E-03
  11.457  0.387E-03  0.194E-03  0.194E-03
  11.459  0.242E-04  0.121E-04  0.121E-04
  11.461  0.196E-03  0.980E-04  0.980E-04
  11.463  0.741E-03  0.370E-03  0.370E-03
  11.465  0.449E-02  0.225E-02  0.225E-02
  11.467  0.879E-01  0.439E-01  0.439E-01
  11.469  0.252E+00  0.126E+00  0.126E+00
  11.471  0.982E-01  0.491E-01  0.491E-01
  11.473  0.520E-02  0.260E-02  0.260E-02
  11.475  0.526E-02  0.263E-02  0.263E-02
  11.477  0.114E+00  0.570E-01  0.570E-01
  11.479  0.338E+00  0.169E+00  0.169E+00
  11.481  0.147E+00  0.736E-01  0.736E-01
  11.483  0.262E-01  0.131E-01  0.131E-01
  11.485  0.260E-01  0.130E-01  0.130E-01
  11.487  0.286E-01  0.143E-01  0.143E-01
  11.489  0.829E-02  0.414E-02  0.414E-02
  11.491  0.552E-01  0.276E-01  0.276E-01
  11.493  0.570E+00  0.285E+00  0.285E+00
  11.495  0.810E+00  0.405E+00  0.405E+00
  11.497  0.216E+00  0.108E+00  0.108E+00
  11.499  0.687E+00  0.343E+00  0.343E+00
  11.501  0.113E+01  0.563E+00  0.563E+00
  11.503  0.484E+00  0.242E+00  0.242E+00
  11.505  0.270E+00  0.135E+00  0.135E+00
  11.507  0.416E-01  0.208E-01  0.208E-01
  11.509  0.163E-01  0.813E-02  0.813E-02
  11.511  0.129E-01  0.643E-02  0.643E-02
  11.513  0.145E-02  0.723E-03  0.723E-03
  11.515  0.221E-04  0.110E-04  0.110E-04
  11.517  0.288E-05  0.144E-05  0.144E-05
  11.519  0.875E-04  0.437E-04  0.437E-04
  11.521  0.566E-03  0.283E-03  0.283E-03
  11.523  0.453E-02  0.227E-02  0.227E-02
  11.525  0.214E-01  0.107E-01  0.107E-01
  11.527  0.166E-01  0.831E-02  0.831E-02
  11.529  0.204E-02  0.102E-02  0.102E-02
  11.531  0.487E-04  0.244E-04  0.244E-04
  11.533  0.699E-03  0.350E-03  0.350E-03
  11.535  0.244E-01  0.122E-01  0.122E-01
  11.537  0.126E+00  0.631E-01  0.631E-01
  11.539  0.144E+00  0.720E-01  0.720E-01
  11.541  0.151E+00  0.756E-01  0.756E-01
  11.543  0.325E+00  0.162E+00  0.162E+00
  11.545  0.190E+00  0.949E-01  0.949E-01
  11.547  0.513E+00  0.256E+00  0.256E+00
  11.549  0.106E+01  0.529E+00  0.529E+00
  11.551  0.410E+00  0.205E+00  0.205E+00
  11.553  0.257E-01  0.129E-01  0.129E-01
  11.555  0.751E-03  0.376E-03  0.376E-03
  11.557  0.455E-04  0.228E-04  0.228E-04
  11.559  0.343E-02  0.172E-02  0.172E-02
  11.561  0.137E+00  0.684E-01  0.684E-01
  11.563  0.742E+00  0.371E+00  0.371E+00
  11.565  0.551E+00  0.275E+00  0.275E+00
  11.567  0.577E-01  0.288E-01  0.288E-01
  11.569  0.113E-02  0.565E-03  0.565E-03
  11.571  0.652E-03  0.326E-03  0.326E-03
  11.573  0.467E-03  0.233E-03  0.233E-03
  11.575  0.314E-03  0.157E-03  0.157E-03
  11.577  0.864E-03  0.432E-03  0.432E-03
  11.579  0.118E-01  0.590E-02  0.590E-02
  11.581  0.507E-01  0.254E-01  0.254E-01
  11.583  0.107E+00  0.536E-01  0.536E-01
  11.585  0.794E-01  0.397E-01  0.397E-01
  11.587  0.352E-01  0.176E-01  0.176E-01
  11.589  0.814E-02  0.407E-02  0.407E-02
  11.591  0.938E-03  0.469E-03  0.469E-03
  11.593  0.473E-02  0.236E-02  0.236E-02
  11.595  0.121E-01  0.604E-02  0.604E-02
  11.597  0.547E-02  0.274E-02  0.274E-02
  11.599  0.609E-02  0.305E-02  0.305E-02
  11.601  0.106E-01  0.528E-02  0.528E-02
  11.603  0.183E+00  0.917E-01  0.917E-01
  11.605  0.789E+00  0.395E+00  0.395E+00
  11.607  0.622E+00  0.311E+00  0.311E+00
  11.609  0.353E+00  0.176E+00  0.176E+00
  11.611  0.900E-01  0.450E-01  0.450E-01
  11.613  0.169E-01  0.843E-02  0.843E-02
  11.615  0.590E-02  0.295E-02  0.295E-02
  11.617  0.441E-03  0.220E-03  0.220E-03
  11.619  0.935E-04  0.467E-04  0.467E-04
  11.621  0.163E-02  0.814E-03  0.814E-03
  11.623  0.342E-01  0.171E-01  0.171E-01
  11.625  0.108E+00  0.540E-01  0.540E-01
  11.627  0.493E-01  0.246E-01  0.246E-01
