# E (eV)   ldos(E)   pdos(E)_1   pdos(E)_2   
   7.605  0.127E-03  0.634E-04  0.634E-04
   7.607  0.791E-02  0.395E-02  0.395E-02
   7.609  0.683E-01  0.341E-01  0.341E-01
   7.611  0.950E-01  0.475E-01  0.475E-01
   7.613  0.487E-01  0.244E-01  0.244E-01
   7.615  0.172E-01  0.861E-02  0.861E-02
   7.617  0.173E-02  0.863E-03  0.863E-03
   7.619  0.533E-02  0.267E-02  0.267E-02
   7.621  0.184E-01  0.921E-02  0.921E-02
   7.623  0.865E-02  0.433E-02  0.433E-02
   7.625  0.550E-03  0.275E-03  0.275E-03
   7.627  0.473E-05  0.237E-05  0.237E-05
   7.629  0.551E-08  0.275E-08  0.275E-08
   7.631  0.868E-12  0.434E-12  0.434E-12
   7.633  0.186E-16  0.932E-17  0.932E-17
   7.635  0.147E-13  0.733E-14  0.733E-14
   7.637  0.210E-09  0.105E-09  0.105E-09
   7.639  0.411E-06  0.206E-06  0.206E-06
   7.641  0.112E-03  0.560E-04  0.560E-04
   7.643  0.442E-02  0.221E-02  0.221E-02
   7.645  0.273E-01  0.136E-01  0.136E-01
   7.647  0.286E-01  0.143E-01  0.143E-01
   7.649  0.540E-02  0.270E-02  0.270E-02
   7.651  0.551E-02  0.275E-02  0.275E-02
   7.653  0.163E-01  0.813E-02  0.813E-02
   7.655  0.691E-02  0.345E-02  0.345E-02
   7.657  0.122E-01  0.612E-02  0.612E-02
   7.659  0.802E-01  0.401E-01  0.401E-01
   7.661  0.733E-01  0.366E-01  0.366E-01
   7.663  0.943E-02  0.472E-02  0.472E-02
   7.665  0.149E-01  0.744E-02  0.744E-02
   7.667  0.803E-01  0.401E-01  0.401E-01
   7.669  0.593E-01  0.296E-01  0.296E-01
   7.671  0.592E-02  0.296E-02  0.296E-02
   7.673  0.143E-03  0.717E-04  0.717E-04
   7.675  0.329E-02  0.165E-02  0.165E-02
   7.677  0.239E-01  0.120E-01  0.120E-01
   7.679  0.244E-01  0.122E-01  0.122E-01
   7.681  0.523E-02  0.262E-02  0.262E-02
   7.683  0.119E-01  0.597E-02  0.597E-02
   7.685  0.269E-01  0.134E-01  0.134E-01
   7.687  0.973E-01  0.486E-01  0.486E-01
   7.689  0.749E-01  0.374E-01  0.374E-01
   7.691  0.790E-02  0.395E-02  0.395E-02
   7.693  0.113E-03  0.564E-04  0.564E-04
   7.695  0.218E-06  0.109E-06  0.109E-06
   7.697  0.570E-10  0.285E-10  0.285E-10
   7.699  0.776E-11  0.388E-11  0.388E-11
   7.701  0.329E-07  0.165E-07  0.165E-07
   7.703  0.190E-04  0.950E-05  0.950E-05
   7.705  0.149E-02  0.746E-03  0.746E-03
   7.707  0.159E-01  0.797E-02  0.797E-02
   7.709  0.233E-01  0.116E-01  0.116E-01
   7.711  0.825E-02  0.412E-02  0.412E-02
   7.713  0.117E-01  0.584E-02  0.584E-02
   7.715  0.492E-02  0.246E-02  0.246E-02
   7.717  0.283E-03  0.142E-03  0.142E-03
   7.719  0.221E-05  0.110E-05  0.110E-05
   7.721  0.279E-08  0.140E-08  0.140E-08
   7.723  0.118E-05  0.589E-06  0.589E-06
   7.725  0.418E-03  0.209E-03  0.209E-03
   7.727  0.208E-01  0.104E-01  0.104E-01
   7.729  0.145E+00  0.725E-01  0.725E-01
   7.731  0.142E+00  0.712E-01  0.712E-01
   7.733  0.205E-01  0.102E-01  0.102E-01
   7.735  0.160E-01  0.799E-02  0.799E-02
   7.737  0.107E+00  0.533E-01  0.533E-01
   7.739  0.271E+00  0.135E+00  0.135E+00
   7.741  0.393E+00  0.196E+00  0.196E+00
   7.743  0.505E+00  0.252E+00  0.252E+00
   7.745  0.422E+00  0.211E+00  0.211E+00
   7.747  0.197E+00  0.987E-01  0.987E-01
   7.749  0.115E+00  0.575E-01  0.575E-01
   7.751  0.109E+00  0.546E-01  0.546E-01
   7.753  0.537E-01  0.268E-01  0.268E-01
   7.755  0.553E-01  0.276E-01  0.276E-01
   7.757  0.634E-01  0.317E-01  0.317E-01
   7.759  0.992E-01  0.496E-01  0.496E-01
   7.761  0.985E-01  0.493E-01  0.493E-01
   7.763  0.298E-01  0.149E-01  0.149E-01
   7.765  0.329E-01  0.164E-01  0.164E-01
   7.767  0.695E-01  0.347E-01  0.347E-01
   7.769  0.327E-01  0.163E-01  0.163E-01
   7.771  0.534E-01  0.267E-01  0.267E-01
   7.773  0.939E-01  0.469E-01  0.469E-01
   7.775  0.480E-01  0.240E-01  0.240E-01
   7.777  0.549E-02  0.275E-02  0.275E-02
   7.779  0.167E-01  0.835E-02  0.835E-02
   7.781  0.629E-01  0.314E-01  0.314E-01
   7.783  0.346E-01  0.173E-01  0.173E-01
   7.785  0.300E-01  0.150E-01  0.150E-01
   7.787  0.682E-01  0.341E-01  0.341E-01
   7.789  0.315E-01  0.157E-01  0.157E-01
   7.791  0.333E-01  0.166E-01  0.166E-01
   7.793  0.697E-01  0.349E-01  0.349E-01
   7.795  0.146E+00  0.730E-01  0.730E-01
   7.797  0.193E+00  0.964E-01  0.964E-01
   7.799  0.920E-01  0.460E-01  0.460E-01
   7.801  0.231E-01  0.116E-01  0.116E-01
   7.803  0.614E-01  0.307E-01  0.307E-01
   7.805  0.147E+00  0.734E-01  0.734E-01
   7.807  0.648E-01  0.324E-01  0.324E-01
   7.809  0.672E-02  0.336E-02  0.336E-02
   7.811  0.342E-03  0.171E-03  0.171E-03
   7.813  0.588E-02  0.294E-02  0.294E-02
   7.815  0.436E-01  0.218E-01  0.218E-01
   7.817  0.574E-01  0.287E-01  0.287E-01
   7.819  0.665E-01  0.332E-01  0.332E-01
   7.821  0.369E-01  0.184E-01  0.184E-01
   7.823  0.106E-01  0.528E-02  0.528E-02
   7.825  0.190E-01  0.949E-02  0.949E-02
   7.827  0.536E-01  0.268E-01  0.268E-01
   7.829  0.245E-01  0.123E-01  0.123E-01
   7.831  0.154E-02  0.768E-03  0.768E-03
   7.833  0.348E-03  0.174E-03  0.174E-03
   7.835  0.296E-02  0.148E-02  0.148E-02
   7.837  0.378E-02  0.189E-02  0.189E-02
   7.839  0.149E-02  0.743E-03  0.743E-03
   7.841  0.238E-01  0.119E-01  0.119E-01
   7.843  0.105E+00  0.527E-01  0.527E-01
   7.845  0.697E-01  0.348E-01  0.348E-01
   7.847  0.790E-02  0.395E-02  0.395E-02
   7.849  0.569E-02  0.285E-02  0.285E-02
   7.851  0.411E-01  0.205E-01  0.205E-01
   7.853  0.420E-01  0.210E-01  0.210E-01
   7.855  0.581E-02  0.291E-02  0.291E-02
   7.857  0.109E-03  0.546E-04  0.546E-04
   7.859  0.915E-06  0.458E-06  0.458E-06
   7.861  0.226E-03  0.113E-03  0.113E-03
   7.863  0.108E-01  0.540E-02  0.540E-02
   7.865  0.700E-01  0.350E-01  0.350E-01
   7.867  0.654E-01  0.327E-01  0.327E-01
   7.869  0.477E-01  0.238E-01  0.238E-01
   7.871  0.550E-01  0.275E-01  0.275E-01
   7.873  0.174E-01  0.870E-02  0.870E-02
   7.875  0.435E-01  0.217E-01  0.217E-01
   7.877  0.404E-01  0.202E-01  0.202E-01
   7.879  0.489E-01  0.245E-01  0.245E-01
   7.881  0.829E-01  0.415E-01  0.415E-01
   7.883  0.906E-01  0.453E-01  0.453E-01
   7.885  0.224E-01  0.112E-01  0.112E-01
   7.887  0.785E-03  0.393E-03  0.393E-03
   7.889  0.374E-05  0.187E-05  0.187E-05
   7.891  0.242E-08  0.121E-08  0.121E-08
   7.893  0.599E-07  0.299E-07  0.299E-07
   7.895  0.374E-04  0.187E-04  0.187E-04
   7.897  0.317E-02  0.159E-02  0.159E-02
   7.899  0.363E-01  0.182E-01  0.182E-01
   7.901  0.564E-01  0.282E-01  0.282E-01
   7.903  0.156E-01  0.778E-02  0.778E-02
   7.905  0.510E-01  0.255E-01  0.255E-01
   7.907  0.949E-01  0.475E-01  0.475E-01
   7.909  0.608E-01  0.304E-01  0.304E-01
   7.911  0.967E-01  0.483E-01  0.483E-01
   7.913  0.345E-01  0.172E-01  0.172E-01
   7.915  0.175E-02  0.875E-03  0.875E-03
   7.917  0.125E-04  0.625E-05  0.625E-05
   7.919  0.125E-07  0.624E-08  0.624E-08
   7.921  0.173E-11  0.865E-12  0.865E-12
   7.923  0.310E-13  0.155E-13  0.155E-13
   7.925  0.476E-09  0.238E-09  0.238E-09
   7.927  0.988E-06  0.494E-06  0.494E-06
   7.929  0.278E-03  0.139E-03  0.139E-03
   7.931  0.106E-01  0.528E-02  0.528E-02
   7.933  0.544E-01  0.272E-01  0.272E-01
   7.935  0.396E-01  0.198E-01  0.198E-01
   7.937  0.357E-01  0.179E-01  0.179E-01
   7.939  0.807E-01  0.404E-01  0.404E-01
   7.941  0.298E-01  0.149E-01  0.149E-01
   7.943  0.299E-01  0.149E-01  0.149E-01
   7.945  0.453E-01  0.227E-01  0.227E-01
   7.947  0.188E-01  0.941E-02  0.941E-02
   7.949  0.415E-01  0.208E-01  0.208E-01
   7.951  0.250E-01  0.125E-01  0.125E-01
   7.953  0.205E-02  0.102E-02  0.102E-02
   7.955  0.227E-04  0.113E-04  0.113E-04
   7.957  0.925E-06  0.462E-06  0.462E-06
   7.959  0.288E-03  0.144E-03  0.144E-03
   7.961  0.129E-01  0.645E-02  0.645E-02
   7.963  0.870E-01  0.435E-01  0.435E-01
   7.965  0.120E+00  0.602E-01  0.602E-01
   7.967  0.884E-01  0.442E-01  0.442E-01
   7.969  0.108E+00  0.538E-01  0.538E-01
   7.971  0.707E-01  0.354E-01  0.354E-01
   7.973  0.240E-01  0.120E-01  0.120E-01
   7.975  0.473E-01  0.237E-01  0.237E-01
   7.977  0.249E-01  0.125E-01  0.125E-01
   7.979  0.560E-01  0.280E-01  0.280E-01
   7.981  0.765E-01  0.382E-01  0.382E-01
   7.983  0.187E-01  0.936E-02  0.936E-02
   7.985  0.115E-02  0.577E-03  0.577E-03
   7.987  0.146E-01  0.732E-02  0.732E-02
   7.989  0.755E-01  0.378E-01  0.378E-01
   7.991  0.589E-01  0.295E-01  0.295E-01
   7.993  0.146E-01  0.731E-02  0.731E-02
   7.995  0.374E-01  0.187E-01  0.187E-01
   7.997  0.244E-01  0.122E-01  0.122E-01
   7.999  0.216E-02  0.108E-02  0.108E-02
   8.001  0.259E-04  0.129E-04  0.129E-04
   8.003  0.590E-05  0.295E-05  0.295E-05
   8.005  0.101E-02  0.505E-03  0.505E-03
   8.007  0.252E-01  0.126E-01  0.126E-01
   8.009  0.967E-01  0.483E-01  0.483E-01
   8.011  0.627E-01  0.314E-01  0.314E-01
   8.013  0.507E-01  0.254E-01  0.254E-01
   8.015  0.119E+00  0.597E-01  0.597E-01
   8.017  0.143E+00  0.715E-01  0.715E-01
   8.019  0.886E-01  0.443E-01  0.443E-01
   8.021  0.365E-01  0.182E-01  0.182E-01
   8.023  0.408E-02  0.204E-02  0.204E-02
   8.025  0.670E-04  0.335E-04  0.335E-04
   8.027  0.348E-04  0.174E-04  0.174E-04
   8.029  0.252E-02  0.126E-02  0.126E-02
   8.031  0.249E-01  0.124E-01  0.124E-01
   8.033  0.362E-01  0.181E-01  0.181E-01
   8.035  0.369E-01  0.184E-01  0.184E-01
   8.037  0.414E-01  0.207E-01  0.207E-01
   8.039  0.144E-01  0.721E-02  0.721E-02
   8.041  0.338E-01  0.169E-01  0.169E-01
   8.043  0.227E-01  0.113E-01  0.113E-01
   8.045  0.238E-01  0.119E-01  0.119E-01
   8.047  0.772E-01  0.386E-01  0.386E-01
   8.049  0.520E-01  0.260E-01  0.260E-01
   8.051  0.596E-01  0.298E-01  0.298E-01
   8.053  0.281E-01  0.141E-01  0.141E-01
   8.055  0.187E-02  0.936E-03  0.936E-03
   8.057  0.440E-03  0.220E-03  0.220E-03
   8.059  0.115E-01  0.573E-02  0.573E-02
   8.061  0.420E-01  0.210E-01  0.210E-01
   8.063  0.209E-01  0.105E-01  0.105E-01
   8.065  0.634E-02  0.317E-02  0.317E-02
   8.067  0.372E-01  0.186E-01  0.186E-01
   8.069  0.537E-01  0.269E-01  0.269E-01
   8.071  0.376E-01  0.188E-01  0.188E-01
   8.073  0.164E-01  0.819E-02  0.819E-02
   8.075  0.335E-01  0.167E-01  0.167E-01
   8.077  0.175E-01  0.876E-02  0.876E-02
   8.079  0.125E-02  0.625E-03  0.625E-03
   8.081  0.121E-04  0.603E-05  0.603E-05
   8.083  0.158E-07  0.790E-08  0.790E-08
   8.085  0.215E-06  0.107E-06  0.107E-06
   8.087  0.986E-04  0.493E-04  0.493E-04
   8.089  0.613E-02  0.306E-02  0.306E-02
   8.091  0.515E-01  0.258E-01  0.258E-01
   8.093  0.615E-01  0.307E-01  0.307E-01
   8.095  0.429E-01  0.215E-01  0.215E-01
   8.097  0.544E-01  0.272E-01  0.272E-01
   8.099  0.130E-01  0.650E-02  0.650E-02
   8.101  0.200E-01  0.100E-01  0.100E-01
   8.103  0.730E-01  0.365E-01  0.365E-01
   8.105  0.893E-01  0.447E-01  0.447E-01
   8.107  0.225E-01  0.112E-01  0.112E-01
   8.109  0.855E-03  0.428E-03  0.428E-03
   8.111  0.462E-05  0.231E-05  0.231E-05
   8.113  0.132E-04  0.662E-05  0.662E-05
   8.115  0.128E-02  0.640E-03  0.640E-03
   8.117  0.168E-01  0.838E-02  0.838E-02
   8.119  0.297E-01  0.148E-01  0.148E-01
   8.121  0.712E-02  0.356E-02  0.356E-02
   8.123  0.732E-03  0.366E-03  0.366E-03
   8.125  0.166E-01  0.830E-02  0.830E-02
   8.127  0.745E-01  0.372E-01  0.372E-01
   8.129  0.497E-01  0.249E-01  0.249E-01
   8.131  0.499E-01  0.250E-01  0.250E-01
   8.133  0.639E-01  0.320E-01  0.320E-01
   8.135  0.237E-01  0.118E-01  0.118E-01
   8.137  0.294E-01  0.147E-01  0.147E-01
   8.139  0.129E-01  0.643E-02  0.643E-02
   8.141  0.405E-01  0.203E-01  0.203E-01
   8.143  0.141E+00  0.707E-01  0.707E-01
   8.145  0.164E+00  0.819E-01  0.819E-01
   8.147  0.699E-01  0.350E-01  0.350E-01
   8.149  0.102E+00  0.512E-01  0.512E-01
   8.151  0.660E-01  0.330E-01  0.330E-01
   8.153  0.972E-02  0.486E-02  0.486E-02
   8.155  0.171E-01  0.854E-02  0.854E-02
   8.157  0.699E-01  0.350E-01  0.350E-01
   8.159  0.565E-01  0.283E-01  0.283E-01
   8.161  0.330E-01  0.165E-01  0.165E-01
   8.163  0.121E-01  0.607E-02  0.607E-02
   8.165  0.170E-02  0.850E-03  0.850E-03
   8.167  0.203E-01  0.101E-01  0.101E-01
   8.169  0.918E-01  0.459E-01  0.459E-01
   8.171  0.128E+00  0.639E-01  0.639E-01
   8.173  0.545E-01  0.272E-01  0.272E-01
   8.175  0.688E-02  0.344E-02  0.344E-02
   8.177  0.181E-03  0.903E-04  0.903E-04
   8.179  0.770E-04  0.385E-04  0.385E-04
   8.181  0.405E-02  0.203E-02  0.203E-02
   8.183  0.330E-01  0.165E-01  0.165E-01
   8.185  0.629E-01  0.315E-01  0.315E-01
   8.187  0.490E-01  0.245E-01  0.245E-01
   8.189  0.435E-01  0.217E-01  0.217E-01
   8.191  0.175E-01  0.874E-02  0.874E-02
   8.193  0.887E-02  0.443E-02  0.443E-02
   8.195  0.551E-01  0.275E-01  0.275E-01
   8.197  0.745E-01  0.373E-01  0.373E-01
   8.199  0.305E-01  0.152E-01  0.152E-01
   8.201  0.377E-01  0.188E-01  0.188E-01
   8.203  0.674E-01  0.337E-01  0.337E-01
   8.205  0.576E-01  0.288E-01  0.288E-01
   8.207  0.340E-01  0.170E-01  0.170E-01
   8.209  0.240E-01  0.120E-01  0.120E-01
   8.211  0.540E-02  0.270E-02  0.270E-02
   8.213  0.277E-03  0.138E-03  0.138E-03
   8.215  0.608E-02  0.304E-02  0.304E-02
   8.217  0.480E-01  0.240E-01  0.240E-01
   8.219  0.512E-01  0.256E-01  0.256E-01
   8.221  0.936E-02  0.468E-02  0.468E-02
   8.223  0.208E-01  0.104E-01  0.104E-01
   8.225  0.335E-01  0.168E-01  0.168E-01
   8.227  0.399E-01  0.200E-01  0.200E-01
   8.229  0.392E-01  0.196E-01  0.196E-01
   8.231  0.641E-02  0.320E-02  0.320E-02
   8.233  0.158E-01  0.789E-02  0.789E-02
   8.235  0.906E-01  0.453E-01  0.453E-01
   8.237  0.730E-01  0.365E-01  0.365E-01
   8.239  0.127E-01  0.635E-02  0.635E-02
   8.241  0.225E-01  0.112E-01  0.112E-01
   8.243  0.310E-01  0.155E-01  0.155E-01
   8.245  0.423E-01  0.211E-01  0.211E-01
   8.247  0.458E-01  0.229E-01  0.229E-01
   8.249  0.115E+00  0.573E-01  0.573E-01
   8.251  0.120E+00  0.599E-01  0.599E-01
   8.253  0.411E-01  0.205E-01  0.205E-01
   8.255  0.482E-01  0.241E-01  0.241E-01
   8.257  0.135E-01  0.677E-02  0.677E-02
   8.259  0.519E-03  0.260E-03  0.260E-03
   8.261  0.270E-05  0.135E-05  0.135E-05
   8.263  0.189E-08  0.947E-09  0.947E-09
   8.265  0.180E-12  0.900E-13  0.900E-13
   8.267  0.527E-14  0.264E-14  0.264E-14
   8.269  0.111E-09  0.553E-10  0.553E-10
   8.271  0.319E-06  0.160E-06  0.160E-06
   8.273  0.127E-03  0.634E-04  0.634E-04
   8.275  0.692E-02  0.346E-02  0.346E-02
   8.277  0.518E-01  0.259E-01  0.259E-01
   8.279  0.533E-01  0.267E-01  0.267E-01
   8.281  0.907E-02  0.453E-02  0.453E-02
   8.283  0.309E-01  0.154E-01  0.154E-01
   8.285  0.837E-01  0.418E-01  0.418E-01
   8.287  0.313E-01  0.157E-01  0.157E-01
   8.289  0.161E-02  0.806E-03  0.806E-03
   8.291  0.137E-03  0.685E-04  0.685E-04
   8.293  0.504E-02  0.252E-02  0.252E-02
   8.295  0.274E-01  0.137E-01  0.137E-01
   8.297  0.201E-01  0.101E-01  0.101E-01
   8.299  0.235E-02  0.118E-02  0.118E-02
   8.301  0.116E-01  0.582E-02  0.582E-02
   8.303  0.526E-01  0.263E-01  0.263E-01
   8.305  0.438E-01  0.219E-01  0.219E-01
   8.307  0.647E-01  0.324E-01  0.324E-01
   8.309  0.804E-01  0.402E-01  0.402E-01
   8.311  0.496E-01  0.248E-01  0.248E-01
   8.313  0.829E-02  0.414E-02  0.414E-02
   8.315  0.722E-03  0.361E-03  0.361E-03
   8.317  0.132E-01  0.661E-02  0.661E-02
   8.319  0.506E-01  0.253E-01  0.253E-01
   8.321  0.262E-01  0.131E-01  0.131E-01
   8.323  0.184E-02  0.920E-03  0.920E-03
   8.325  0.507E-03  0.254E-03  0.254E-03
   8.327  0.134E-01  0.669E-02  0.669E-02
   8.329  0.495E-01  0.248E-01  0.248E-01
   8.331  0.253E-01  0.127E-01  0.127E-01
   8.333  0.128E-01  0.640E-02  0.640E-02
   8.335  0.312E-01  0.156E-01  0.156E-01
   8.337  0.259E-01  0.129E-01  0.129E-01
   8.339  0.679E-01  0.339E-01  0.339E-01
   8.341  0.637E-01  0.318E-01  0.318E-01
   8.343  0.313E-01  0.156E-01  0.156E-01
   8.345  0.480E-01  0.240E-01  0.240E-01
   8.347  0.229E-01  0.114E-01  0.114E-01
   8.349  0.205E-02  0.103E-02  0.103E-02
   8.351  0.292E-04  0.146E-04  0.146E-04
   8.353  0.323E-03  0.161E-03  0.161E-03
   8.355  0.110E-01  0.549E-02  0.549E-02
   8.357  0.506E-01  0.253E-01  0.253E-01
   8.359  0.316E-01  0.158E-01  0.158E-01
   8.361  0.539E-02  0.269E-02  0.269E-02
   8.363  0.162E-01  0.811E-02  0.811E-02
   8.365  0.240E-01  0.120E-01  0.120E-01
   8.367  0.472E-01  0.236E-01  0.236E-01
   8.369  0.507E-01  0.253E-01  0.253E-01
   8.371  0.812E-02  0.406E-02  0.406E-02
   8.373  0.177E-03  0.883E-04  0.883E-04
   8.375  0.142E-05  0.711E-06  0.711E-06
   8.377  0.199E-03  0.996E-04  0.996E-04
   8.379  0.595E-02  0.298E-02  0.298E-02
   8.381  0.248E-01  0.124E-01  0.124E-01
   8.383  0.265E-01  0.132E-01  0.132E-01
   8.385  0.545E-01  0.272E-01  0.272E-01
   8.387  0.704E-01  0.352E-01  0.352E-01
   8.389  0.288E-01  0.144E-01  0.144E-01
   8.391  0.223E-02  0.111E-02  0.111E-02
   8.393  0.356E-02  0.178E-02  0.178E-02
   8.395  0.215E-01  0.108E-01  0.108E-01
   8.397  0.259E-01  0.130E-01  0.130E-01
   8.399  0.564E-01  0.282E-01  0.282E-01
   8.401  0.570E-01  0.285E-01  0.285E-01
   8.403  0.133E-01  0.664E-02  0.664E-02
   8.405  0.149E-01  0.743E-02  0.743E-02
   8.407  0.430E-01  0.215E-01  0.215E-01
   8.409  0.180E-01  0.900E-02  0.900E-02
   8.411  0.825E-02  0.412E-02  0.412E-02
   8.413  0.167E-01  0.837E-02  0.837E-02
   8.415  0.541E-02  0.271E-02  0.271E-02
   8.417  0.309E-02  0.155E-02  0.155E-02
   8.419  0.257E-01  0.128E-01  0.128E-01
   8.421  0.463E-01  0.231E-01  0.231E-01
   8.423  0.280E-01  0.140E-01  0.140E-01
   8.425  0.849E-02  0.424E-02  0.424E-02
   8.427  0.778E-02  0.389E-02  0.389E-02
   8.429  0.101E-01  0.503E-02  0.503E-02
   8.431  0.454E-01  0.227E-01  0.227E-01
   8.433  0.575E-01  0.288E-01  0.288E-01
   8.435  0.325E-01  0.163E-01  0.163E-01
   8.437  0.425E-01  0.212E-01  0.212E-01
   8.439  0.497E-01  0.249E-01  0.249E-01
   8.441  0.156E-01  0.778E-02  0.778E-02
   8.443  0.181E-01  0.903E-02  0.903E-02
   8.445  0.675E-01  0.337E-01  0.337E-01
   8.447  0.623E-01  0.311E-01  0.311E-01
   8.449  0.947E-02  0.473E-02  0.473E-02
   8.451  0.235E-03  0.118E-03  0.118E-03
   8.453  0.117E-02  0.585E-03  0.585E-03
   8.455  0.711E-02  0.355E-02  0.355E-02
   8.457  0.597E-02  0.298E-02  0.298E-02
   8.459  0.469E-02  0.235E-02  0.235E-02
   8.461  0.190E-01  0.948E-02  0.948E-02
   8.463  0.120E-01  0.602E-02  0.602E-02
   8.465  0.243E-02  0.122E-02  0.122E-02
   8.467  0.199E-01  0.997E-02  0.997E-02
   8.469  0.419E-01  0.209E-01  0.209E-01
   8.471  0.178E-01  0.888E-02  0.888E-02
   8.473  0.227E-02  0.114E-02  0.114E-02
   8.475  0.637E-04  0.318E-04  0.318E-04
   8.477  0.142E-04  0.710E-05  0.710E-05
   8.479  0.139E-02  0.693E-03  0.693E-03
   8.481  0.190E-01  0.950E-02  0.950E-02
   8.483  0.466E-01  0.233E-01  0.233E-01
   8.485  0.790E-01  0.395E-01  0.395E-01
   8.487  0.809E-01  0.404E-01  0.404E-01
   8.489  0.538E-01  0.269E-01  0.269E-01
   8.491  0.403E-01  0.201E-01  0.201E-01
   8.493  0.368E-01  0.184E-01  0.184E-01
   8.495  0.647E-01  0.323E-01  0.323E-01
   8.497  0.106E+00  0.531E-01  0.531E-01
   8.499  0.930E-01  0.465E-01  0.465E-01
   8.501  0.600E-01  0.300E-01  0.300E-01
   8.503  0.397E-01  0.199E-01  0.199E-01
   8.505  0.330E-01  0.165E-01  0.165E-01
   8.507  0.247E-01  0.123E-01  0.123E-01
   8.509  0.158E-01  0.790E-02  0.790E-02
   8.511  0.204E-01  0.102E-01  0.102E-01
   8.513  0.784E-02  0.392E-02  0.392E-02
   8.515  0.853E-02  0.427E-02  0.427E-02
   8.517  0.256E-01  0.128E-01  0.128E-01
   8.519  0.130E-01  0.651E-02  0.651E-02
   8.521  0.154E-01  0.771E-02  0.771E-02
   8.523  0.138E-01  0.688E-02  0.688E-02
   8.525  0.206E-02  0.103E-02  0.103E-02
   8.527  0.968E-02  0.484E-02  0.484E-02
   8.529  0.468E-01  0.234E-01  0.234E-01
   8.531  0.590E-01  0.295E-01  0.295E-01
   8.533  0.431E-01  0.215E-01  0.215E-01
   8.535  0.348E-01  0.174E-01  0.174E-01
   8.537  0.552E-01  0.276E-01  0.276E-01
   8.539  0.649E-01  0.325E-01  0.325E-01
   8.541  0.444E-01  0.222E-01  0.222E-01
   8.543  0.412E-01  0.206E-01  0.206E-01
   8.545  0.706E-01  0.353E-01  0.353E-01
   8.547  0.702E-01  0.351E-01  0.351E-01
   8.549  0.532E-01  0.266E-01  0.266E-01
   8.551  0.699E-01  0.350E-01  0.350E-01
   8.553  0.896E-01  0.448E-01  0.448E-01
   8.555  0.535E-01  0.268E-01  0.268E-01
   8.557  0.340E-01  0.170E-01  0.170E-01
   8.559  0.133E-01  0.666E-02  0.666E-02
   8.561  0.129E-01  0.646E-02  0.646E-02
   8.563  0.236E-01  0.118E-01  0.118E-01
   8.565  0.308E-01  0.154E-01  0.154E-01
   8.567  0.422E-01  0.211E-01  0.211E-01
   8.569  0.543E-01  0.272E-01  0.272E-01
   8.571  0.667E-01  0.333E-01  0.333E-01
   8.573  0.275E-01  0.137E-01  0.137E-01
   8.575  0.168E-01  0.840E-02  0.840E-02
   8.577  0.243E-01  0.122E-01  0.122E-01
   8.579  0.287E-01  0.143E-01  0.143E-01
   8.581  0.144E-01  0.718E-02  0.718E-02
   8.583  0.351E-01  0.175E-01  0.175E-01
   8.585  0.437E-01  0.218E-01  0.218E-01
   8.587  0.201E-01  0.100E-01  0.100E-01
   8.589  0.258E-01  0.129E-01  0.129E-01
   8.591  0.159E-01  0.794E-02  0.794E-02
   8.593  0.117E-01  0.584E-02  0.584E-02
   8.595  0.218E-01  0.109E-01  0.109E-01
   8.597  0.191E-01  0.957E-02  0.957E-02
   8.599  0.728E-02  0.364E-02  0.364E-02
   8.601  0.580E-02  0.290E-02  0.290E-02
   8.603  0.582E-02  0.291E-02  0.291E-02
   8.605  0.132E-02  0.658E-03  0.658E-03
   8.607  0.103E-01  0.517E-02  0.517E-02
   8.609  0.451E-01  0.226E-01  0.226E-01
   8.611  0.106E+00  0.530E-01  0.530E-01
   8.613  0.132E+00  0.660E-01  0.660E-01
   8.615  0.798E-01  0.399E-01  0.399E-01
   8.617  0.388E-01  0.194E-01  0.194E-01
   8.619  0.318E-01  0.159E-01  0.159E-01
   8.621  0.461E-01  0.230E-01  0.230E-01
   8.623  0.442E-01  0.221E-01  0.221E-01
   8.625  0.190E-01  0.949E-02  0.949E-02
   8.627  0.145E-01  0.724E-02  0.724E-02
   8.629  0.226E-01  0.113E-01  0.113E-01
   8.631  0.154E-01  0.768E-02  0.768E-02
   8.633  0.755E-02  0.377E-02  0.377E-02
   8.635  0.351E-02  0.176E-02  0.176E-02
   8.637  0.113E-01  0.566E-02  0.566E-02
   8.639  0.204E-01  0.102E-01  0.102E-01
   8.641  0.347E-01  0.173E-01  0.173E-01
   8.643  0.555E-01  0.277E-01  0.277E-01
   8.645  0.909E-01  0.454E-01  0.454E-01
   8.647  0.534E-01  0.267E-01  0.267E-01
   8.649  0.148E-01  0.739E-02  0.739E-02
   8.651  0.224E-02  0.112E-02  0.112E-02
   8.653  0.797E-02  0.399E-02  0.399E-02
   8.655  0.200E-01  0.999E-02  0.999E-02
   8.657  0.308E-01  0.154E-01  0.154E-01
   8.659  0.200E-01  0.999E-02  0.999E-02
   8.661  0.145E-01  0.727E-02  0.727E-02
   8.663  0.794E-02  0.397E-02  0.397E-02
   8.665  0.104E-02  0.520E-03  0.520E-03
   8.667  0.473E-02  0.236E-02  0.236E-02
   8.669  0.171E-01  0.856E-02  0.856E-02
   8.671  0.318E-01  0.159E-01  0.159E-01
   8.673  0.264E-01  0.132E-01  0.132E-01
   8.675  0.604E-01  0.302E-01  0.302E-01
   8.677  0.109E+00  0.544E-01  0.544E-01
   8.679  0.512E-01  0.256E-01  0.256E-01
   8.681  0.277E-01  0.139E-01  0.139E-01
   8.683  0.356E-01  0.178E-01  0.178E-01
   8.685  0.173E-01  0.867E-02  0.867E-02
   8.687  0.293E-02  0.146E-02  0.146E-02
   8.689  0.464E-02  0.232E-02  0.232E-02
   8.691  0.669E-02  0.335E-02  0.335E-02
   8.693  0.376E-02  0.188E-02  0.188E-02
   8.695  0.580E-02  0.290E-02  0.290E-02
   8.697  0.100E-01  0.502E-02  0.502E-02
   8.699  0.108E-01  0.541E-02  0.541E-02
   8.701  0.124E-01  0.620E-02  0.620E-02
   8.703  0.284E-01  0.142E-01  0.142E-01
   8.705  0.324E-01  0.162E-01  0.162E-01
   8.707  0.711E-02  0.356E-02  0.356E-02
   8.709  0.292E-02  0.146E-02  0.146E-02
   8.711  0.302E-02  0.151E-02  0.151E-02
   8.713  0.219E-02  0.110E-02  0.110E-02
   8.715  0.955E-02  0.477E-02  0.477E-02
   8.717  0.147E-01  0.737E-02  0.737E-02
   8.719  0.130E-01  0.648E-02  0.648E-02
   8.721  0.370E-01  0.185E-01  0.185E-01
   8.723  0.826E-01  0.413E-01  0.413E-01
   8.725  0.540E-01  0.270E-01  0.270E-01
   8.727  0.150E-01  0.751E-02  0.751E-02
   8.729  0.164E-02  0.818E-03  0.818E-03
   8.731  0.197E-02  0.983E-03  0.983E-03
   8.733  0.742E-02  0.371E-02  0.371E-02
   8.735  0.395E-02  0.197E-02  0.197E-02
   8.737  0.467E-02  0.234E-02  0.234E-02
   8.739  0.277E-01  0.138E-01  0.138E-01
   8.741  0.245E-01  0.123E-01  0.123E-01
   8.743  0.549E-02  0.274E-02  0.274E-02
   8.745  0.372E-01  0.186E-01  0.186E-01
   8.747  0.780E-01  0.390E-01  0.390E-01
   8.749  0.255E-01  0.127E-01  0.127E-01
   8.751  0.128E-01  0.638E-02  0.638E-02
   8.753  0.112E-01  0.559E-02  0.559E-02
   8.755  0.651E-02  0.326E-02  0.326E-02
   8.757  0.353E-02  0.176E-02  0.176E-02
   8.759  0.259E-02  0.129E-02  0.129E-02
   8.761  0.144E-01  0.719E-02  0.719E-02
   8.763  0.176E-01  0.878E-02  0.878E-02
   8.765  0.837E-02  0.418E-02  0.418E-02
   8.767  0.113E-02  0.564E-03  0.564E-03
   8.769  0.674E-04  0.337E-04  0.337E-04
   8.771  0.153E-02  0.767E-03  0.767E-03
   8.773  0.748E-02  0.374E-02  0.374E-02
   8.775  0.118E-01  0.591E-02  0.591E-02
   8.777  0.317E-01  0.159E-01  0.159E-01
   8.779  0.188E-01  0.939E-02  0.939E-02
   8.781  0.155E-02  0.773E-03  0.773E-03
   8.783  0.179E-04  0.895E-05  0.895E-05
   8.785  0.894E-04  0.447E-04  0.447E-04
   8.787  0.234E-02  0.117E-02  0.117E-02
   8.789  0.827E-02  0.413E-02  0.413E-02
   8.791  0.398E-02  0.199E-02  0.199E-02
   8.793  0.121E-02  0.605E-03  0.605E-03
   8.795  0.639E-02  0.319E-02  0.319E-02
   8.797  0.579E-02  0.290E-02  0.290E-02
   8.799  0.722E-03  0.361E-03  0.361E-03
   8.801  0.157E-02  0.784E-03  0.784E-03
   8.803  0.332E-01  0.166E-01  0.166E-01
   8.805  0.959E-01  0.480E-01  0.480E-01
   8.807  0.377E-01  0.188E-01  0.188E-01
   8.809  0.201E-02  0.100E-02  0.100E-02
   8.811  0.678E-04  0.339E-04  0.339E-04
   8.813  0.182E-02  0.910E-03  0.910E-03
   8.815  0.113E-01  0.565E-02  0.565E-02
   8.817  0.277E-01  0.138E-01  0.138E-01
   8.819  0.425E-01  0.213E-01  0.213E-01
   8.821  0.863E-01  0.431E-01  0.431E-01
   8.823  0.479E-01  0.239E-01  0.239E-01
   8.825  0.383E-02  0.192E-02  0.192E-02
   8.827  0.418E-04  0.209E-04  0.209E-04
   8.829  0.188E-05  0.942E-06  0.942E-06
   8.831  0.224E-03  0.112E-03  0.112E-03
   8.833  0.374E-02  0.187E-02  0.187E-02
   8.835  0.845E-02  0.423E-02  0.423E-02
   8.837  0.258E-02  0.129E-02  0.129E-02
   8.839  0.402E-03  0.201E-03  0.201E-03
   8.841  0.427E-02  0.213E-02  0.213E-02
   8.843  0.110E-01  0.548E-02  0.548E-02
   8.845  0.930E-02  0.465E-02  0.465E-02
   8.847  0.261E-02  0.130E-02  0.130E-02
   8.849  0.728E-02  0.364E-02  0.364E-02
   8.851  0.197E-01  0.984E-02  0.984E-02
   8.853  0.728E-02  0.364E-02  0.364E-02
   8.855  0.383E-03  0.192E-03  0.192E-03
   8.857  0.145E-02  0.726E-03  0.726E-03
   8.859  0.155E-01  0.774E-02  0.774E-02
   8.861  0.224E-01  0.112E-01  0.112E-01
   8.863  0.517E-02  0.259E-02  0.259E-02
   8.865  0.659E-02  0.330E-02  0.330E-02
   8.867  0.771E-02  0.385E-02  0.385E-02
   8.869  0.863E-02  0.431E-02  0.431E-02
   8.871  0.135E-01  0.676E-02  0.676E-02
   8.873  0.351E-02  0.176E-02  0.176E-02
   8.875  0.133E-03  0.663E-04  0.663E-04
   8.877  0.715E-06  0.358E-06  0.358E-06
   8.879  0.543E-09  0.272E-09  0.272E-09
   8.881  0.315E-10  0.158E-10  0.158E-10
   8.883  0.124E-06  0.622E-07  0.622E-07
   8.885  0.665E-04  0.333E-04  0.333E-04
   8.887  0.481E-02  0.241E-02  0.241E-02
   8.889  0.472E-01  0.236E-01  0.236E-01
   8.891  0.625E-01  0.313E-01  0.313E-01
   8.893  0.113E-01  0.563E-02  0.563E-02
   8.895  0.243E-02  0.121E-02  0.121E-02
   8.897  0.193E-01  0.963E-02  0.963E-02
   8.899  0.637E-01  0.318E-01  0.318E-01
   8.901  0.105E+00  0.526E-01  0.526E-01
   8.903  0.501E-01  0.251E-01  0.251E-01
   8.905  0.271E-01  0.135E-01  0.135E-01
   8.907  0.104E-01  0.521E-02  0.521E-02
   8.909  0.598E-03  0.299E-03  0.299E-03
   8.911  0.465E-05  0.233E-05  0.233E-05
   8.913  0.490E-08  0.245E-08  0.245E-08
   8.915  0.860E-11  0.430E-11  0.430E-11
   8.917  0.242E-07  0.121E-07  0.121E-07
   8.919  0.102E-04  0.512E-05  0.512E-05
   8.921  0.615E-03  0.308E-03  0.308E-03
   8.923  0.576E-02  0.288E-02  0.288E-02
   8.925  0.968E-02  0.484E-02  0.484E-02
   8.927  0.310E-02  0.155E-02  0.155E-02
   8.929  0.203E-03  0.102E-03  0.102E-03
   8.931  0.145E-02  0.724E-03  0.724E-03
   8.933  0.810E-02  0.405E-02  0.405E-02
   8.935  0.614E-02  0.307E-02  0.307E-02
   8.937  0.629E-03  0.315E-03  0.315E-03
   8.939  0.873E-05  0.436E-05  0.436E-05
   8.941  0.165E-07  0.824E-08  0.824E-08
   8.943  0.143E-06  0.715E-07  0.715E-07
   8.945  0.392E-04  0.196E-04  0.196E-04
   8.947  0.193E-02  0.965E-03  0.965E-03
   8.949  0.205E-01  0.103E-01  0.103E-01
   8.951  0.497E-01  0.248E-01  0.248E-01
   8.953  0.266E-01  0.133E-01  0.133E-01
   8.955  0.273E-02  0.136E-02  0.136E-02
   8.957  0.444E-04  0.222E-04  0.222E-04
   8.959  0.103E-06  0.517E-07  0.517E-07
   8.961  0.432E-10  0.216E-10  0.216E-10
   8.963  0.329E-07  0.164E-07  0.164E-07
   8.965  0.146E-04  0.728E-05  0.728E-05
   8.967  0.875E-03  0.437E-03  0.437E-03
   8.969  0.720E-02  0.360E-02  0.360E-02
   8.971  0.968E-02  0.484E-02  0.484E-02
   8.973  0.671E-02  0.335E-02  0.335E-02
   8.975  0.712E-02  0.356E-02  0.356E-02
   8.977  0.441E-01  0.220E-01  0.220E-01
   8.979  0.650E-01  0.325E-01  0.325E-01
   8.981  0.133E-01  0.667E-02  0.667E-02
   8.983  0.132E-01  0.660E-02  0.660E-02
   8.985  0.791E-01  0.396E-01  0.396E-01
   8.987  0.660E-01  0.330E-01  0.330E-01
   8.989  0.755E-02  0.377E-02  0.377E-02
   8.991  0.165E-02  0.827E-03  0.827E-03
   8.993  0.362E-02  0.181E-02  0.181E-02
   8.995  0.139E-02  0.697E-03  0.697E-03
   8.997  0.102E-02  0.509E-03  0.509E-03
   8.999  0.128E-01  0.638E-02  0.638E-02
   9.001  0.247E-01  0.124E-01  0.124E-01
   9.003  0.208E-01  0.104E-01  0.104E-01
   9.005  0.267E-01  0.133E-01  0.133E-01
   9.007  0.144E-01  0.720E-02  0.720E-02
   9.009  0.996E-02  0.498E-02  0.498E-02
   9.011  0.154E-02  0.769E-03  0.769E-03
   9.013  0.369E-04  0.184E-04  0.184E-04
   9.015  0.115E-03  0.573E-04  0.573E-04
   9.017  0.454E-03  0.227E-03  0.227E-03
   9.019  0.245E-03  0.122E-03  0.122E-03
   9.021  0.199E-04  0.996E-05  0.996E-05
   9.023  0.120E-05  0.598E-06  0.598E-06
   9.025  0.717E-06  0.359E-06  0.359E-06
   9.027  0.469E-06  0.234E-06  0.234E-06
   9.029  0.114E-06  0.569E-07  0.569E-07
   9.031  0.518E-06  0.259E-06  0.259E-06
   9.033  0.534E-06  0.267E-06  0.267E-06
   9.035  0.746E-07  0.373E-07  0.373E-07
   9.037  0.149E-07  0.746E-08  0.746E-08
   9.039  0.247E-06  0.123E-06  0.123E-06
   9.041  0.671E-06  0.336E-06  0.336E-06
   9.043  0.233E-04  0.116E-04  0.116E-04
   9.045  0.120E-02  0.600E-03  0.600E-03
   9.047  0.900E-02  0.450E-02  0.450E-02
   9.049  0.186E-01  0.928E-02  0.928E-02
   9.051  0.254E-01  0.127E-01  0.127E-01
   9.053  0.757E-02  0.378E-02  0.378E-02
   9.055  0.320E-03  0.160E-03  0.160E-03
   9.057  0.505E-03  0.252E-03  0.252E-03
   9.059  0.105E-01  0.524E-02  0.524E-02
   9.061  0.295E-01  0.148E-01  0.148E-01
   9.063  0.113E-01  0.567E-02  0.567E-02
   9.065  0.525E-02  0.262E-02  0.262E-02
   9.067  0.459E-01  0.229E-01  0.229E-01
   9.069  0.611E-01  0.305E-01  0.305E-01
   9.071  0.142E-01  0.709E-02  0.709E-02
   9.073  0.475E-01  0.237E-01  0.237E-01
   9.075  0.949E-01  0.475E-01  0.475E-01
   9.077  0.258E-01  0.129E-01  0.129E-01
   9.079  0.951E-03  0.475E-03  0.475E-03
   9.081  0.493E-05  0.247E-05  0.247E-05
   9.083  0.736E-06  0.368E-06  0.368E-06
   9.085  0.893E-04  0.446E-04  0.446E-04
   9.087  0.265E-02  0.133E-02  0.133E-02
   9.089  0.107E-01  0.534E-02  0.534E-02
   9.091  0.581E-02  0.291E-02  0.291E-02
   9.093  0.428E-03  0.214E-03  0.214E-03
   9.095  0.432E-05  0.216E-05  0.216E-05
   9.097  0.247E-04  0.124E-04  0.124E-04
   9.099  0.174E-02  0.872E-03  0.872E-03
   9.101  0.166E-01  0.832E-02  0.832E-02
   9.103  0.215E-01  0.108E-01  0.108E-01
   9.105  0.376E-02  0.188E-02  0.188E-02
   9.107  0.889E-04  0.445E-04  0.445E-04
   9.109  0.285E-06  0.142E-06  0.142E-06
   9.111  0.170E-09  0.848E-10  0.848E-10
   9.113  0.141E-06  0.706E-07  0.706E-07
   9.115  0.584E-04  0.292E-04  0.292E-04
   9.117  0.326E-02  0.163E-02  0.163E-02
   9.119  0.247E-01  0.124E-01  0.124E-01
   9.121  0.253E-01  0.127E-01  0.127E-01
   9.123  0.351E-02  0.176E-02  0.176E-02
   9.125  0.659E-04  0.330E-04  0.330E-04
   9.127  0.698E-05  0.349E-05  0.349E-05
   9.129  0.591E-03  0.295E-03  0.295E-03
   9.131  0.693E-02  0.347E-02  0.347E-02
   9.133  0.110E-01  0.551E-02  0.551E-02
   9.135  0.237E-02  0.118E-02  0.118E-02
   9.137  0.689E-04  0.344E-04  0.344E-04
   9.139  0.271E-06  0.136E-06  0.136E-06
   9.141  0.236E-09  0.118E-09  0.118E-09
   9.143  0.552E-08  0.276E-08  0.276E-08
   9.145  0.450E-07  0.225E-07  0.225E-07
   9.147  0.754E-07  0.377E-07  0.377E-07
   9.149  0.159E-04  0.795E-05  0.795E-05
   9.151  0.133E-02  0.665E-03  0.665E-03
   9.153  0.152E-01  0.759E-02  0.759E-02
   9.155  0.304E-01  0.152E-01  0.152E-01
   9.157  0.566E-01  0.283E-01  0.283E-01
   9.159  0.491E-01  0.246E-01  0.246E-01
   9.161  0.629E-02  0.315E-02  0.315E-02
   9.163  0.301E-02  0.150E-02  0.150E-02
   9.165  0.456E-01  0.228E-01  0.228E-01
   9.167  0.973E-01  0.486E-01  0.486E-01
   9.169  0.281E-01  0.140E-01  0.140E-01
   9.171  0.110E-02  0.548E-03  0.548E-03
   9.173  0.206E-03  0.103E-03  0.103E-03
   9.175  0.435E-02  0.217E-02  0.217E-02
   9.177  0.133E-01  0.667E-02  0.667E-02
   9.179  0.173E-01  0.866E-02  0.866E-02
   9.181  0.344E-01  0.172E-01  0.172E-01
   9.183  0.129E-01  0.643E-02  0.643E-02
   9.185  0.656E-03  0.328E-03  0.328E-03
   9.187  0.453E-05  0.227E-05  0.227E-05
   9.189  0.423E-08  0.212E-08  0.212E-08
   9.191  0.535E-12  0.268E-12  0.268E-12
   9.193  0.192E-13  0.958E-14  0.958E-14
   9.195  0.102E-10  0.509E-11  0.509E-11
   9.197  0.735E-09  0.367E-09  0.367E-09
   9.199  0.163E-07  0.815E-08  0.815E-08
   9.201  0.749E-05  0.374E-05  0.374E-05
   9.203  0.825E-03  0.413E-03  0.413E-03
   9.205  0.123E-01  0.616E-02  0.616E-02
   9.207  0.249E-01  0.125E-01  0.125E-01
   9.209  0.682E-02  0.341E-02  0.341E-02
   9.211  0.252E-03  0.126E-03  0.126E-03
   9.213  0.126E-05  0.632E-06  0.632E-06
   9.215  0.188E-08  0.940E-09  0.940E-09
   9.217  0.124E-05  0.622E-06  0.622E-06
   9.219  0.205E-03  0.103E-03  0.103E-03
   9.221  0.458E-02  0.229E-02  0.229E-02
   9.223  0.138E-01  0.692E-02  0.692E-02
   9.225  0.565E-02  0.283E-02  0.283E-02
   9.227  0.313E-03  0.156E-03  0.156E-03
   9.229  0.239E-05  0.120E-05  0.120E-05
   9.231  0.112E-06  0.560E-07  0.560E-07
   9.233  0.325E-07  0.163E-07  0.163E-07
   9.235  0.707E-08  0.353E-08  0.353E-08
   9.237  0.602E-05  0.301E-05  0.301E-05
   9.239  0.906E-03  0.453E-03  0.453E-03
   9.241  0.210E-01  0.105E-01  0.105E-01
   9.243  0.813E-01  0.407E-01  0.407E-01
   9.245  0.537E-01  0.269E-01  0.269E-01
   9.247  0.567E-02  0.283E-02  0.283E-02
   9.249  0.883E-04  0.441E-04  0.441E-04
   9.251  0.249E-06  0.124E-06  0.124E-06
   9.253  0.296E-04  0.148E-04  0.148E-04
   9.255  0.240E-02  0.120E-02  0.120E-02
   9.257  0.357E-01  0.179E-01  0.179E-01
   9.259  0.111E+00  0.554E-01  0.554E-01
   9.261  0.630E-01  0.315E-01  0.315E-01
   9.263  0.544E-02  0.272E-02  0.272E-02
   9.265  0.783E-04  0.392E-04  0.392E-04
   9.267  0.938E-03  0.469E-03  0.469E-03
   9.269  0.973E-02  0.486E-02  0.486E-02
   9.271  0.137E-01  0.683E-02  0.683E-02
   9.273  0.260E-02  0.130E-02  0.130E-02
   9.275  0.667E-04  0.334E-04  0.334E-04
   9.277  0.232E-06  0.116E-06  0.116E-06
   9.279  0.109E-09  0.547E-10  0.547E-10
   9.281  0.697E-14  0.349E-14  0.349E-14
   9.283  0.602E-19  0.301E-19  0.301E-19
   9.285  0.000E+00  0.000E+00  0.000E+00
   9.287  0.642E-20  0.321E-20  0.321E-20
   9.289  0.215E-15  0.108E-15  0.108E-15
   9.291  0.976E-12  0.488E-12  0.488E-12
   9.293  0.599E-09  0.300E-09  0.300E-09
   9.295  0.506E-07  0.253E-07  0.253E-07
   9.297  0.187E-05  0.937E-06  0.937E-06
   9.299  0.285E-03  0.143E-03  0.143E-03
   9.301  0.833E-02  0.416E-02  0.416E-02
   9.303  0.331E-01  0.165E-01  0.165E-01
   9.305  0.214E-01  0.107E-01  0.107E-01
   9.307  0.240E-01  0.120E-01  0.120E-01
   9.309  0.191E-01  0.954E-02  0.954E-02
   9.311  0.216E-02  0.108E-02  0.108E-02
   9.313  0.440E-04  0.220E-04  0.220E-04
   9.315  0.915E-03  0.458E-03  0.458E-03
   9.317  0.114E-01  0.571E-02  0.571E-02
   9.319  0.361E-01  0.180E-01  0.180E-01
   9.321  0.492E-01  0.246E-01  0.246E-01
   9.323  0.140E-01  0.700E-02  0.700E-02
   9.325  0.569E-03  0.285E-03  0.285E-03
   9.327  0.315E-05  0.158E-05  0.158E-05
   9.329  0.242E-08  0.121E-08  0.121E-08
   9.331  0.141E-07  0.704E-08  0.704E-08
   9.333  0.443E-06  0.222E-06  0.222E-06
   9.335  0.189E-05  0.944E-06  0.944E-06
   9.337  0.109E-05  0.544E-06  0.544E-06
   9.339  0.852E-07  0.426E-07  0.426E-07
   9.341  0.630E-06  0.315E-06  0.315E-06
   9.343  0.226E-03  0.113E-03  0.113E-03
   9.345  0.110E-01  0.548E-02  0.548E-02
   9.347  0.721E-01  0.360E-01  0.360E-01
   9.349  0.642E-01  0.321E-01  0.321E-01
   9.351  0.114E-01  0.569E-02  0.569E-02
   9.353  0.235E-01  0.117E-01  0.117E-01
   9.355  0.219E-01  0.109E-01  0.109E-01
   9.357  0.217E-01  0.109E-01  0.109E-01
   9.359  0.293E-01  0.147E-01  0.147E-01
   9.361  0.599E-02  0.300E-02  0.300E-02
   9.363  0.789E-03  0.394E-03  0.394E-03
   9.365  0.916E-02  0.458E-02  0.458E-02
   9.367  0.182E-01  0.911E-02  0.911E-02
   9.369  0.491E-02  0.245E-02  0.245E-02
   9.371  0.179E-03  0.895E-04  0.895E-04
   9.373  0.309E-05  0.154E-05  0.154E-05
   9.375  0.389E-05  0.194E-05  0.194E-05
   9.377  0.335E-04  0.167E-04  0.167E-04
   9.379  0.241E-02  0.121E-02  0.121E-02
   9.381  0.241E-01  0.121E-01  0.121E-01
   9.383  0.327E-01  0.163E-01  0.163E-01
   9.385  0.600E-02  0.300E-02  0.300E-02
   9.387  0.149E-03  0.744E-04  0.744E-04
   9.389  0.372E-04  0.186E-04  0.186E-04
   9.391  0.237E-02  0.119E-02  0.119E-02
   9.393  0.207E-01  0.104E-01  0.104E-01
   9.395  0.245E-01  0.123E-01  0.123E-01
   9.397  0.393E-02  0.196E-02  0.196E-02
   9.399  0.825E-03  0.412E-03  0.412E-03
   9.401  0.127E-01  0.637E-02  0.637E-02
   9.403  0.297E-01  0.148E-01  0.148E-01
   9.405  0.936E-02  0.468E-02  0.468E-02
   9.407  0.400E-03  0.200E-03  0.200E-03
   9.409  0.705E-04  0.353E-04  0.353E-04
   9.411  0.298E-02  0.149E-02  0.149E-02
   9.413  0.176E-01  0.879E-02  0.879E-02
   9.415  0.142E-01  0.710E-02  0.710E-02
   9.417  0.878E-02  0.439E-02  0.439E-02
   9.419  0.532E-01  0.266E-01  0.266E-01
   9.421  0.553E-01  0.276E-01  0.276E-01
   9.423  0.322E-01  0.161E-01  0.161E-01
   9.425  0.493E-01  0.247E-01  0.247E-01
   9.427  0.294E-01  0.147E-01  0.147E-01
   9.429  0.447E-02  0.223E-02  0.223E-02
   9.431  0.111E-01  0.555E-02  0.555E-02
   9.433  0.297E-01  0.148E-01  0.148E-01
   9.435  0.108E-01  0.540E-02  0.540E-02
   9.437  0.532E-03  0.266E-03  0.266E-03
   9.439  0.356E-05  0.178E-05  0.178E-05
   9.441  0.902E-05  0.451E-05  0.451E-05
   9.443  0.126E-02  0.630E-03  0.630E-03
   9.445  0.243E-01  0.122E-01  0.122E-01
   9.447  0.716E-01  0.358E-01  0.358E-01
   9.449  0.527E-01  0.263E-01  0.263E-01
   9.451  0.259E-01  0.129E-01  0.129E-01
   9.453  0.972E-01  0.486E-01  0.486E-01
   9.455  0.142E+00  0.709E-01  0.709E-01
   9.457  0.119E+00  0.594E-01  0.594E-01
   9.459  0.106E+00  0.532E-01  0.532E-01
   9.461  0.479E-01  0.239E-01  0.239E-01
   9.463  0.394E-01  0.197E-01  0.197E-01
   9.465  0.398E-01  0.199E-01  0.199E-01
   9.467  0.327E-01  0.164E-01  0.164E-01
   9.469  0.310E-01  0.155E-01  0.155E-01
   9.471  0.182E-01  0.908E-02  0.908E-02
   9.473  0.315E-01  0.157E-01  0.157E-01
   9.475  0.124E-01  0.622E-02  0.622E-02
   9.477  0.689E-03  0.344E-03  0.344E-03
   9.479  0.155E-02  0.773E-03  0.773E-03
   9.481  0.174E-01  0.870E-02  0.870E-02
   9.483  0.267E-01  0.134E-01  0.134E-01
   9.485  0.121E-01  0.606E-02  0.606E-02
   9.487  0.434E-01  0.217E-01  0.217E-01
   9.489  0.386E-01  0.193E-01  0.193E-01
   9.491  0.520E-02  0.260E-02  0.260E-02
   9.493  0.966E-02  0.483E-02  0.483E-02
   9.495  0.267E-01  0.133E-01  0.133E-01
   9.497  0.125E-01  0.625E-02  0.625E-02
   9.499  0.188E-01  0.940E-02  0.940E-02
   9.501  0.181E-01  0.904E-02  0.904E-02
   9.503  0.358E-02  0.179E-02  0.179E-02
   9.505  0.159E-01  0.793E-02  0.793E-02
   9.507  0.300E-01  0.150E-01  0.150E-01
   9.509  0.773E-02  0.387E-02  0.387E-02
   9.511  0.269E-03  0.135E-03  0.135E-03
   9.513  0.127E-05  0.635E-06  0.635E-06
   9.515  0.811E-09  0.405E-09  0.405E-09
   9.517  0.700E-13  0.350E-13  0.350E-13
   9.519  0.246E-13  0.123E-13  0.123E-13
   9.521  0.347E-09  0.174E-09  0.174E-09
   9.523  0.664E-06  0.332E-06  0.332E-06
   9.525  0.172E-03  0.858E-04  0.858E-04
   9.527  0.601E-02  0.301E-02  0.301E-02
   9.529  0.285E-01  0.142E-01  0.142E-01
   9.531  0.183E-01  0.914E-02  0.914E-02
   9.533  0.159E-02  0.793E-03  0.793E-03
   9.535  0.186E-04  0.932E-05  0.932E-05
   9.537  0.296E-07  0.148E-07  0.148E-07
   9.539  0.637E-11  0.319E-11  0.319E-11
   9.541  0.483E-13  0.241E-13  0.241E-13
   9.543  0.206E-09  0.103E-09  0.103E-09
   9.545  0.119E-06  0.597E-07  0.597E-07
   9.547  0.938E-05  0.469E-05  0.469E-05
   9.549  0.996E-04  0.498E-04  0.498E-04
   9.551  0.163E-03  0.816E-04  0.816E-04
   9.553  0.168E-02  0.841E-03  0.841E-03
   9.555  0.185E-01  0.925E-02  0.925E-02
   9.557  0.280E-01  0.140E-01  0.140E-01
   9.559  0.573E-02  0.286E-02  0.286E-02
   9.561  0.159E-03  0.793E-04  0.793E-04
   9.563  0.595E-06  0.297E-06  0.297E-06
   9.565  0.302E-09  0.151E-09  0.151E-09
   9.567  0.207E-13  0.104E-13  0.104E-13
   9.569  0.193E-18  0.963E-19  0.963E-19
   9.571  0.000E+00  0.000E+00  0.000E+00
   9.573  0.000E+00  0.000E+00  0.000E+00
   9.575  0.286E-16  0.143E-16  0.143E-16
   9.577  0.135E-11  0.674E-12  0.674E-12
   9.579  0.860E-08  0.430E-08  0.430E-08
   9.581  0.742E-05  0.371E-05  0.371E-05
   9.583  0.867E-03  0.434E-03  0.434E-03
   9.585  0.137E-01  0.685E-02  0.685E-02
   9.587  0.293E-01  0.147E-01  0.147E-01
   9.589  0.849E-02  0.425E-02  0.425E-02
   9.591  0.333E-03  0.167E-03  0.167E-03
   9.593  0.590E-04  0.295E-04  0.295E-04
   9.595  0.111E-02  0.553E-03  0.553E-03
   9.597  0.290E-02  0.145E-02  0.145E-02
   9.599  0.103E-02  0.513E-03  0.513E-03
   9.601  0.492E-04  0.246E-04  0.246E-04
   9.603  0.320E-06  0.160E-06  0.160E-06
   9.605  0.281E-09  0.140E-09  0.140E-09
   9.607  0.334E-13  0.167E-13  0.167E-13
   9.609  0.537E-18  0.268E-18  0.268E-18
   9.611  0.000E+00  0.000E+00  0.000E+00
   9.613  0.169E-18  0.844E-19  0.844E-19
   9.615  0.182E-13  0.910E-14  0.910E-14
   9.617  0.266E-09  0.133E-09  0.133E-09
   9.619  0.525E-06  0.262E-06  0.262E-06
   9.621  0.140E-03  0.701E-04  0.701E-04
   9.623  0.507E-02  0.254E-02  0.254E-02
   9.625  0.248E-01  0.124E-01  0.124E-01
   9.627  0.164E-01  0.822E-02  0.822E-02
   9.629  0.147E-02  0.737E-03  0.737E-03
   9.631  0.179E-04  0.894E-05  0.894E-05
   9.633  0.294E-07  0.147E-07  0.147E-07
   9.635  0.653E-11  0.326E-11  0.326E-11
   9.637  0.196E-15  0.981E-16  0.981E-16
   9.639  0.875E-20  0.437E-20  0.437E-20
   9.641  0.862E-15  0.431E-15  0.431E-15
   9.643  0.128E-10  0.638E-11  0.638E-11
   9.645  0.351E-07  0.175E-07  0.175E-07
   9.647  0.207E-04  0.104E-04  0.104E-04
   9.649  0.227E-02  0.113E-02  0.113E-02
   9.651  0.384E-01  0.192E-01  0.192E-01
   9.653  0.109E+00  0.547E-01  0.547E-01
   9.655  0.101E+00  0.507E-01  0.507E-01
   9.657  0.338E-01  0.169E-01  0.169E-01
   9.659  0.474E-02  0.237E-02  0.237E-02
   9.661  0.221E-01  0.111E-01  0.111E-01
   9.663  0.237E-01  0.118E-01  0.118E-01
   9.665  0.343E-02  0.171E-02  0.171E-02
   9.667  0.680E-04  0.340E-04  0.340E-04
   9.669  0.226E-03  0.113E-03  0.113E-03
   9.671  0.988E-02  0.494E-02  0.494E-02
   9.673  0.651E-01  0.326E-01  0.326E-01
   9.675  0.117E+00  0.583E-01  0.583E-01
   9.677  0.902E-01  0.451E-01  0.451E-01
   9.679  0.139E-01  0.695E-02  0.695E-02
   9.681  0.303E-03  0.152E-03  0.152E-03
   9.683  0.899E-06  0.450E-06  0.450E-06
   9.685  0.361E-09  0.181E-09  0.181E-09
   9.687  0.196E-13  0.981E-14  0.981E-14
   9.689  0.431E-17  0.215E-17  0.215E-17
   9.691  0.304E-12  0.152E-12  0.152E-12
   9.693  0.301E-08  0.151E-08  0.151E-08
   9.695  0.404E-05  0.202E-05  0.202E-05
   9.697  0.732E-03  0.366E-03  0.366E-03
   9.699  0.180E-01  0.901E-02  0.901E-02
   9.701  0.625E-01  0.313E-01  0.313E-01
   9.703  0.488E-01  0.244E-01  0.244E-01
   9.705  0.249E-01  0.125E-01  0.125E-01
   9.707  0.336E-02  0.168E-02  0.168E-02
   9.709  0.651E-04  0.325E-04  0.325E-04
   9.711  0.171E-06  0.856E-07  0.856E-07
   9.713  0.610E-10  0.305E-10  0.305E-10
   9.715  0.943E-12  0.471E-12  0.471E-12
   9.717  0.848E-08  0.424E-08  0.424E-08
   9.719  0.104E-04  0.518E-05  0.518E-05
   9.721  0.171E-02  0.856E-03  0.856E-03
   9.723  0.383E-01  0.192E-01  0.192E-01
   9.725  0.116E+00  0.580E-01  0.580E-01
   9.727  0.475E-01  0.238E-01  0.238E-01
   9.729  0.270E-02  0.135E-02  0.135E-02
   9.731  0.435E-02  0.218E-02  0.218E-02
   9.733  0.390E-01  0.195E-01  0.195E-01
   9.735  0.475E-01  0.237E-01  0.237E-01
   9.737  0.783E-02  0.392E-02  0.392E-02
   9.739  0.175E-03  0.874E-04  0.874E-04
   9.741  0.528E-06  0.264E-06  0.264E-06
   9.743  0.354E-06  0.177E-06  0.177E-06
   9.745  0.108E-03  0.540E-04  0.540E-04
   9.747  0.447E-02  0.223E-02  0.223E-02
   9.749  0.250E-01  0.125E-01  0.125E-01
   9.751  0.189E-01  0.947E-02  0.947E-02
   9.753  0.194E-02  0.971E-03  0.971E-03
   9.755  0.496E-04  0.248E-04  0.248E-04
   9.757  0.430E-04  0.215E-04  0.215E-04
   9.759  0.110E-04  0.551E-05  0.551E-05
   9.761  0.383E-06  0.191E-06  0.191E-06
   9.763  0.332E-08  0.166E-08  0.166E-08
   9.765  0.232E-05  0.116E-05  0.116E-05
   9.767  0.479E-03  0.239E-03  0.239E-03
   9.769  0.134E-01  0.669E-02  0.669E-02
   9.771  0.506E-01  0.253E-01  0.253E-01
   9.773  0.259E-01  0.130E-01  0.130E-01
   9.775  0.258E-02  0.129E-02  0.129E-02
   9.777  0.231E-01  0.115E-01  0.115E-01
   9.779  0.924E-01  0.462E-01  0.462E-01
   9.781  0.500E-01  0.250E-01  0.250E-01
   9.783  0.367E-02  0.183E-02  0.183E-02
   9.785  0.364E-04  0.182E-04  0.182E-04
   9.787  0.195E-05  0.974E-06  0.974E-06
   9.789  0.538E-03  0.269E-03  0.269E-03
   9.791  0.228E-01  0.114E-01  0.114E-01
   9.793  0.151E+00  0.754E-01  0.754E-01
   9.795  0.157E+00  0.783E-01  0.783E-01
   9.797  0.372E-01  0.186E-01  0.186E-01
   9.799  0.280E-01  0.140E-01  0.140E-01
   9.801  0.797E-02  0.398E-02  0.398E-02
   9.803  0.237E-02  0.118E-02  0.118E-02
   9.805  0.435E-01  0.217E-01  0.217E-01
   9.807  0.125E+00  0.623E-01  0.623E-01
   9.809  0.542E-01  0.271E-01  0.271E-01
   9.811  0.422E-01  0.211E-01  0.211E-01
   9.813  0.361E-01  0.180E-01  0.180E-01
   9.815  0.443E-02  0.222E-02  0.222E-02
   9.817  0.738E-04  0.369E-04  0.369E-04
   9.819  0.566E-04  0.283E-04  0.283E-04
   9.821  0.620E-02  0.310E-02  0.310E-02
   9.823  0.922E-01  0.461E-01  0.461E-01
   9.825  0.186E+00  0.928E-01  0.928E-01
   9.827  0.540E-01  0.270E-01  0.270E-01
   9.829  0.476E-01  0.238E-01  0.238E-01
   9.831  0.227E+00  0.114E+00  0.114E+00
   9.833  0.379E+00  0.189E+00  0.189E+00
   9.835  0.103E+00  0.516E-01  0.516E-01
   9.837  0.391E-02  0.196E-02  0.196E-02
   9.839  0.203E-04  0.101E-04  0.101E-04
   9.841  0.144E-07  0.718E-08  0.718E-08
   9.843  0.440E-08  0.220E-08  0.220E-08
   9.845  0.542E-05  0.271E-05  0.271E-05
   9.847  0.106E-02  0.530E-03  0.530E-03
   9.849  0.344E-01  0.172E-01  0.172E-01
   9.851  0.180E+00  0.900E-01  0.900E-01
   9.853  0.151E+00  0.757E-01  0.757E-01
   9.855  0.588E-01  0.294E-01  0.294E-01
   9.857  0.262E-01  0.131E-01  0.131E-01
   9.859  0.995E-02  0.497E-02  0.497E-02
   9.861  0.103E+00  0.513E-01  0.513E-01
   9.863  0.182E+00  0.909E-01  0.909E-01
   9.865  0.436E-01  0.218E-01  0.218E-01
   9.867  0.143E-02  0.713E-03  0.713E-03
   9.869  0.188E-04  0.938E-05  0.938E-05
   9.871  0.402E-04  0.201E-04  0.201E-04
   9.873  0.274E-02  0.137E-02  0.137E-02
   9.875  0.287E-01  0.143E-01  0.143E-01
   9.877  0.999E-01  0.500E-01  0.500E-01
   9.879  0.340E+00  0.170E+00  0.170E+00
   9.881  0.332E+00  0.166E+00  0.166E+00
   9.883  0.739E-01  0.370E-01  0.370E-01
   9.885  0.319E-02  0.160E-02  0.160E-02
   9.887  0.216E-04  0.108E-04  0.108E-04
   9.889  0.207E-07  0.103E-07  0.103E-07
   9.891  0.272E-11  0.136E-11  0.136E-11
   9.893  0.144E-09  0.722E-10  0.722E-10
   9.895  0.364E-06  0.182E-06  0.182E-06
   9.897  0.124E-03  0.621E-04  0.621E-04
   9.899  0.574E-02  0.287E-02  0.287E-02
   9.901  0.359E-01  0.180E-01  0.180E-01
   9.903  0.331E-01  0.165E-01  0.165E-01
   9.905  0.237E-01  0.119E-01  0.119E-01
   9.907  0.206E-01  0.103E-01  0.103E-01
   9.909  0.509E-02  0.255E-02  0.255E-02
   9.911  0.546E-01  0.273E-01  0.273E-01
   9.913  0.179E+00  0.893E-01  0.893E-01
   9.915  0.118E+00  0.588E-01  0.588E-01
   9.917  0.175E+00  0.873E-01  0.873E-01
   9.919  0.989E-01  0.494E-01  0.494E-01
   9.921  0.846E-02  0.423E-02  0.423E-02
   9.923  0.128E-01  0.642E-02  0.642E-02
   9.925  0.326E-01  0.163E-01  0.163E-01
   9.927  0.113E-01  0.564E-02  0.564E-02
   9.929  0.528E-03  0.264E-03  0.264E-03
   9.931  0.335E-05  0.168E-05  0.168E-05
   9.933  0.288E-08  0.144E-08  0.144E-08
   9.935  0.338E-12  0.169E-12  0.169E-12
   9.937  0.542E-17  0.271E-17  0.271E-17
   9.939  0.555E-16  0.277E-16  0.277E-16
   9.941  0.246E-11  0.123E-11  0.123E-11
   9.943  0.148E-07  0.740E-08  0.740E-08
   9.945  0.122E-04  0.612E-05  0.612E-05
   9.947  0.147E-02  0.735E-03  0.735E-03
   9.949  0.311E-01  0.156E-01  0.156E-01
   9.951  0.155E+00  0.776E-01  0.776E-01
   9.953  0.167E+00  0.834E-01  0.834E-01
   9.955  0.288E-01  0.144E-01  0.144E-01
   9.957  0.704E-03  0.352E-03  0.352E-03
   9.959  0.104E-03  0.519E-04  0.519E-04
   9.961  0.409E-02  0.205E-02  0.205E-02
   9.963  0.223E-01  0.112E-01  0.112E-01
   9.965  0.165E-01  0.824E-02  0.824E-02
   9.967  0.165E-02  0.824E-03  0.824E-03
   9.969  0.235E-03  0.118E-03  0.118E-03
   9.971  0.640E-02  0.320E-02  0.320E-02
   9.973  0.260E-01  0.130E-01  0.130E-01
   9.975  0.146E-01  0.732E-02  0.732E-02
   9.977  0.170E-01  0.848E-02  0.848E-02
   9.979  0.123E+00  0.617E-01  0.617E-01
   9.981  0.203E+00  0.101E+00  0.101E+00
   9.983  0.865E-01  0.433E-01  0.433E-01
   9.985  0.702E-02  0.351E-02  0.351E-02
   9.987  0.841E-04  0.421E-04  0.421E-04
   9.989  0.230E-04  0.115E-04  0.115E-04
   9.991  0.338E-02  0.169E-02  0.169E-02
   9.993  0.753E-01  0.377E-01  0.377E-01
   9.995  0.280E+00  0.140E+00  0.140E+00
   9.997  0.185E+00  0.927E-01  0.927E-01
   9.999  0.252E-01  0.126E-01  0.126E-01
  10.001  0.309E-01  0.154E-01  0.154E-01
  10.003  0.281E-01  0.141E-01  0.141E-01
  10.005  0.350E-02  0.175E-02  0.175E-02
  10.007  0.590E-04  0.295E-04  0.295E-04
  10.009  0.134E-06  0.672E-07  0.672E-07
  10.011  0.433E-10  0.217E-10  0.217E-10
  10.013  0.104E-07  0.518E-08  0.518E-08
  10.015  0.797E-05  0.399E-05  0.399E-05
  10.017  0.830E-03  0.415E-03  0.415E-03
  10.019  0.118E-01  0.589E-02  0.589E-02
  10.021  0.264E-01  0.132E-01  0.132E-01
  10.023  0.274E-01  0.137E-01  0.137E-01
  10.025  0.155E-01  0.777E-02  0.777E-02
  10.027  0.147E-02  0.736E-03  0.736E-03
  10.029  0.191E-04  0.955E-05  0.955E-05
  10.031  0.406E-07  0.203E-07  0.203E-07
  10.033  0.296E-06  0.148E-06  0.148E-06
  10.035  0.171E-05  0.854E-06  0.854E-06
  10.037  0.123E-04  0.616E-05  0.616E-05
  10.039  0.129E-02  0.647E-03  0.647E-03
  10.041  0.335E-01  0.168E-01  0.168E-01
  10.043  0.173E+00  0.866E-01  0.866E-01
  10.045  0.142E+00  0.708E-01  0.708E-01
  10.047  0.190E-01  0.950E-02  0.950E-02
  10.049  0.397E-02  0.198E-02  0.198E-02
  10.051  0.222E-02  0.111E-02  0.111E-02
  10.053  0.148E-01  0.738E-02  0.738E-02
  10.055  0.421E-01  0.211E-01  0.211E-01
  10.057  0.193E-01  0.966E-02  0.966E-02
  10.059  0.156E-02  0.782E-03  0.782E-03
  10.061  0.170E-02  0.849E-03  0.849E-03
  10.063  0.180E-01  0.900E-02  0.900E-02
  10.065  0.370E-01  0.185E-01  0.185E-01
  10.067  0.245E-01  0.123E-01  0.123E-01
  10.069  0.476E-02  0.238E-02  0.238E-02
  10.071  0.152E-03  0.758E-04  0.758E-04
  10.073  0.203E-05  0.102E-05  0.102E-05
  10.075  0.144E-03  0.722E-04  0.722E-04
  10.077  0.207E-02  0.103E-02  0.103E-02
  10.079  0.401E-02  0.201E-02  0.201E-02
  10.081  0.120E-02  0.598E-03  0.598E-03
  10.083  0.480E-02  0.240E-02  0.240E-02
  10.085  0.214E-01  0.107E-01  0.107E-01
  10.087  0.130E-01  0.651E-02  0.651E-02
  10.089  0.108E-02  0.538E-03  0.538E-03
  10.091  0.104E-02  0.519E-03  0.519E-03
  10.093  0.350E-01  0.175E-01  0.175E-01
  10.095  0.163E+00  0.814E-01  0.814E-01
  10.097  0.104E+00  0.518E-01  0.518E-01
  10.099  0.934E-02  0.467E-02  0.467E-02
  10.101  0.616E-02  0.308E-02  0.308E-02
  10.103  0.257E-01  0.128E-01  0.128E-01
  10.105  0.148E-01  0.740E-02  0.740E-02
  10.107  0.216E-02  0.108E-02  0.108E-02
  10.109  0.184E-01  0.919E-02  0.919E-02
  10.111  0.496E-01  0.248E-01  0.248E-01
  10.113  0.205E-01  0.103E-01  0.103E-01
  10.115  0.268E-02  0.134E-02  0.134E-02
  10.117  0.472E-02  0.236E-02  0.236E-02
  10.119  0.219E-02  0.110E-02  0.110E-02
  10.121  0.138E-03  0.692E-04  0.692E-04
  10.123  0.118E-05  0.590E-06  0.590E-06
  10.125  0.136E-08  0.682E-09  0.682E-09
  10.127  0.269E-12  0.134E-12  0.134E-12
  10.129  0.126E-08  0.632E-09  0.632E-09
  10.131  0.388E-05  0.194E-05  0.194E-05
  10.133  0.161E-02  0.805E-03  0.805E-03
  10.135  0.905E-01  0.453E-01  0.453E-01
  10.137  0.688E+00  0.344E+00  0.344E+00
  10.139  0.710E+00  0.355E+00  0.355E+00
  10.141  0.104E+00  0.518E-01  0.518E-01
  10.143  0.400E-02  0.200E-02  0.200E-02
  10.145  0.769E-03  0.384E-03  0.384E-03
  10.147  0.142E-01  0.708E-02  0.708E-02
  10.149  0.956E-01  0.478E-01  0.478E-01
  10.151  0.174E+00  0.872E-01  0.872E-01
  10.153  0.533E-01  0.267E-01  0.267E-01
  10.155  0.188E-01  0.942E-02  0.942E-02
  10.157  0.370E-01  0.185E-01  0.185E-01
  10.159  0.190E-01  0.948E-02  0.948E-02
  10.161  0.168E-02  0.840E-03  0.840E-03
  10.163  0.159E-02  0.797E-03  0.797E-03
  10.165  0.499E-01  0.250E-01  0.250E-01
  10.167  0.255E+00  0.127E+00  0.127E+00
  10.169  0.230E+00  0.115E+00  0.115E+00
  10.171  0.454E-01  0.227E-01  0.227E-01
  10.173  0.100E+00  0.501E-01  0.501E-01
  10.175  0.236E+00  0.118E+00  0.118E+00
  10.177  0.151E+00  0.753E-01  0.753E-01
  10.179  0.295E-01  0.147E-01  0.147E-01
  10.181  0.171E-01  0.853E-02  0.853E-02
  10.183  0.363E-01  0.182E-01  0.182E-01
  10.185  0.127E+00  0.633E-01  0.633E-01
  10.187  0.182E+00  0.911E-01  0.911E-01
  10.189  0.499E-01  0.249E-01  0.249E-01
  10.191  0.240E-01  0.120E-01  0.120E-01
  10.193  0.789E-01  0.394E-01  0.394E-01
  10.195  0.886E-01  0.443E-01  0.443E-01
  10.197  0.715E-01  0.358E-01  0.358E-01
  10.199  0.760E-01  0.380E-01  0.380E-01
  10.201  0.151E+00  0.757E-01  0.757E-01
  10.203  0.558E-01  0.279E-01  0.279E-01
  10.205  0.415E-02  0.207E-02  0.207E-02
  10.207  0.409E-01  0.205E-01  0.205E-01
  10.209  0.216E+00  0.108E+00  0.108E+00
  10.211  0.185E+00  0.924E-01  0.924E-01
  10.213  0.475E-01  0.238E-01  0.238E-01
  10.215  0.178E-01  0.888E-02  0.888E-02
  10.217  0.142E-01  0.712E-02  0.712E-02
  10.219  0.895E-01  0.448E-01  0.448E-01
  10.221  0.140E+00  0.701E-01  0.701E-01
  10.223  0.810E-01  0.405E-01  0.405E-01
  10.225  0.582E-01  0.291E-01  0.291E-01
  10.227  0.224E+00  0.112E+00  0.112E+00
  10.229  0.199E+00  0.996E-01  0.996E-01
  10.231  0.120E+00  0.600E-01  0.600E-01
  10.233  0.450E-01  0.225E-01  0.225E-01
  10.235  0.407E-02  0.204E-02  0.204E-02
  10.237  0.849E-04  0.424E-04  0.424E-04
  10.239  0.181E-02  0.906E-03  0.906E-03
  10.241  0.517E-01  0.259E-01  0.259E-01
  10.243  0.246E+00  0.123E+00  0.123E+00
  10.245  0.283E+00  0.141E+00  0.141E+00
  10.247  0.154E+00  0.771E-01  0.771E-01
  10.249  0.245E-01  0.122E-01  0.122E-01
  10.251  0.352E-02  0.176E-02  0.176E-02
  10.253  0.766E-02  0.383E-02  0.383E-02
  10.255  0.509E-01  0.255E-01  0.255E-01
  10.257  0.938E-01  0.469E-01  0.469E-01
  10.259  0.344E-01  0.172E-01  0.172E-01
  10.261  0.479E-01  0.239E-01  0.239E-01
  10.263  0.371E-01  0.185E-01  0.185E-01
  10.265  0.759E-02  0.380E-02  0.380E-02
  10.267  0.908E-02  0.454E-02  0.454E-02
  10.269  0.112E+00  0.561E-01  0.561E-01
  10.271  0.262E+00  0.131E+00  0.131E+00
  10.273  0.114E+00  0.570E-01  0.570E-01
  10.275  0.129E-01  0.647E-02  0.647E-02
  10.277  0.179E-01  0.894E-02  0.894E-02
  10.279  0.959E-02  0.479E-02  0.479E-02
  10.281  0.827E-03  0.413E-03  0.413E-03
  10.283  0.749E-03  0.374E-03  0.374E-03
  10.285  0.242E-01  0.121E-01  0.121E-01
  10.287  0.114E+00  0.570E-01  0.570E-01
  10.289  0.864E-01  0.432E-01  0.432E-01
  10.291  0.212E-01  0.106E-01  0.106E-01
  10.293  0.350E-02  0.175E-02  0.175E-02
  10.295  0.421E-02  0.210E-02  0.210E-02
  10.297  0.297E-01  0.149E-01  0.149E-01
  10.299  0.612E-01  0.306E-01  0.306E-01
  10.301  0.137E+00  0.686E-01  0.686E-01
  10.303  0.759E-01  0.380E-01  0.380E-01
  10.305  0.622E-02  0.311E-02  0.311E-02
  10.307  0.700E-02  0.350E-02  0.350E-02
  10.309  0.325E-01  0.162E-01  0.162E-01
  10.311  0.206E-01  0.103E-01  0.103E-01
  10.313  0.177E-02  0.884E-03  0.884E-03
  10.315  0.205E-04  0.103E-04  0.103E-04
  10.317  0.388E-05  0.194E-05  0.194E-05
  10.319  0.815E-03  0.407E-03  0.407E-03
  10.321  0.233E-01  0.117E-01  0.117E-01
  10.323  0.904E-01  0.452E-01  0.452E-01
  10.325  0.474E-01  0.237E-01  0.237E-01
  10.327  0.363E-02  0.181E-02  0.181E-02
  10.329  0.181E-03  0.904E-04  0.904E-04
  10.331  0.120E-03  0.602E-04  0.602E-04
  10.333  0.110E-01  0.550E-02  0.550E-02
  10.335  0.152E+00  0.760E-01  0.760E-01
  10.337  0.289E+00  0.144E+00  0.144E+00
  10.339  0.847E-01  0.423E-01  0.423E-01
  10.341  0.214E-01  0.107E-01  0.107E-01
  10.343  0.753E-02  0.377E-02  0.377E-02
  10.345  0.134E-02  0.670E-03  0.670E-03
  10.347  0.217E-01  0.109E-01  0.109E-01
  10.349  0.160E+00  0.801E-01  0.801E-01
  10.351  0.213E+00  0.106E+00  0.106E+00
  10.353  0.407E-01  0.204E-01  0.204E-01
  10.355  0.110E-02  0.552E-03  0.552E-03
  10.357  0.284E-03  0.142E-03  0.142E-03
  10.359  0.920E-02  0.460E-02  0.460E-02
  10.361  0.834E-01  0.417E-01  0.417E-01
  10.363  0.110E+00  0.550E-01  0.550E-01
  10.365  0.486E-01  0.243E-01  0.243E-01
  10.367  0.238E-01  0.119E-01  0.119E-01
  10.369  0.585E-01  0.292E-01  0.292E-01
  10.371  0.211E+00  0.106E+00  0.106E+00
  10.373  0.243E+00  0.122E+00  0.122E+00
  10.375  0.182E+00  0.910E-01  0.910E-01
  10.377  0.101E+00  0.506E-01  0.506E-01
  10.379  0.233E-01  0.117E-01  0.117E-01
  10.381  0.648E-02  0.324E-02  0.324E-02
  10.383  0.104E-01  0.522E-02  0.522E-02
  10.385  0.815E-02  0.408E-02  0.408E-02
  10.387  0.888E-03  0.444E-03  0.444E-03
  10.389  0.500E-04  0.250E-04  0.250E-04
  10.391  0.160E-03  0.801E-04  0.801E-04
  10.393  0.100E-03  0.500E-04  0.500E-04
  10.395  0.870E-05  0.435E-05  0.435E-05
  10.397  0.455E-06  0.227E-06  0.227E-06
  10.399  0.141E-03  0.705E-04  0.705E-04
  10.401  0.960E-02  0.480E-02  0.480E-02
  10.403  0.106E+00  0.531E-01  0.531E-01
  10.405  0.190E+00  0.950E-01  0.950E-01
  10.407  0.137E+00  0.685E-01  0.685E-01
  10.409  0.862E-01  0.431E-01  0.431E-01
  10.411  0.126E-01  0.631E-02  0.631E-02
  10.413  0.169E-01  0.846E-02  0.846E-02
  10.415  0.288E-01  0.144E-01  0.144E-01
  10.417  0.462E-01  0.231E-01  0.231E-01
  10.419  0.120E+00  0.599E-01  0.599E-01
  10.421  0.528E-01  0.264E-01  0.264E-01
  10.423  0.758E-02  0.379E-02  0.379E-02
  10.425  0.173E-02  0.863E-03  0.863E-03
  10.427  0.166E-01  0.832E-02  0.832E-02
  10.429  0.114E+00  0.571E-01  0.571E-01
  10.431  0.399E+00  0.199E+00  0.199E+00
  10.433  0.460E+00  0.230E+00  0.230E+00
  10.435  0.496E+00  0.248E+00  0.248E+00
  10.437  0.254E+00  0.127E+00  0.127E+00
  10.439  0.232E+00  0.116E+00  0.116E+00
  10.441  0.309E+00  0.154E+00  0.154E+00
  10.443  0.373E+00  0.187E+00  0.187E+00
  10.445  0.518E+00  0.259E+00  0.259E+00
  10.447  0.278E+00  0.139E+00  0.139E+00
  10.449  0.160E+00  0.799E-01  0.799E-01
  10.451  0.108E+00  0.538E-01  0.538E-01
  10.453  0.145E+00  0.724E-01  0.724E-01
  10.455  0.133E+00  0.664E-01  0.664E-01
  10.457  0.371E+00  0.186E+00  0.186E+00
  10.459  0.458E+00  0.229E+00  0.229E+00
  10.461  0.141E+00  0.704E-01  0.704E-01
  10.463  0.721E-01  0.361E-01  0.361E-01
  10.465  0.282E+00  0.141E+00  0.141E+00
  10.467  0.333E+00  0.167E+00  0.167E+00
  10.469  0.169E+00  0.843E-01  0.843E-01
  10.471  0.542E-01  0.271E-01  0.271E-01
  10.473  0.418E-01  0.209E-01  0.209E-01
  10.475  0.163E+00  0.817E-01  0.817E-01
  10.477  0.209E+00  0.104E+00  0.104E+00
  10.479  0.361E+00  0.181E+00  0.181E+00
  10.481  0.365E+00  0.183E+00  0.183E+00
  10.483  0.385E+00  0.192E+00  0.192E+00
  10.485  0.258E+00  0.129E+00  0.129E+00
  10.487  0.360E-01  0.180E-01  0.180E-01
  10.489  0.111E-02  0.557E-03  0.557E-03
  10.491  0.191E-01  0.956E-02  0.956E-02
  10.493  0.140E+00  0.700E-01  0.700E-01
  10.495  0.162E+00  0.812E-01  0.812E-01
  10.497  0.113E+00  0.567E-01  0.567E-01
  10.499  0.768E-01  0.384E-01  0.384E-01
  10.501  0.537E-01  0.269E-01  0.269E-01
  10.503  0.123E+00  0.616E-01  0.616E-01
  10.505  0.231E+00  0.115E+00  0.115E+00
  10.507  0.399E+00  0.200E+00  0.200E+00
  10.509  0.264E+00  0.132E+00  0.132E+00
  10.511  0.254E+00  0.127E+00  0.127E+00
  10.513  0.354E+00  0.177E+00  0.177E+00
  10.515  0.227E+00  0.113E+00  0.113E+00
  10.517  0.167E+00  0.837E-01  0.837E-01
  10.519  0.559E-01  0.280E-01  0.280E-01
  10.521  0.802E-02  0.401E-02  0.401E-02
  10.523  0.424E-02  0.212E-02  0.212E-02
  10.525  0.470E-01  0.235E-01  0.235E-01
  10.527  0.849E-01  0.425E-01  0.425E-01
  10.529  0.829E-01  0.414E-01  0.414E-01
  10.531  0.257E+00  0.129E+00  0.129E+00
  10.533  0.281E+00  0.140E+00  0.140E+00
  10.535  0.137E+00  0.684E-01  0.684E-01
  10.537  0.662E-01  0.331E-01  0.331E-01
  10.539  0.106E-01  0.528E-02  0.528E-02
  10.541  0.106E-01  0.531E-02  0.531E-02
  10.543  0.134E-01  0.672E-02  0.672E-02
  10.545  0.426E-01  0.213E-01  0.213E-01
  10.547  0.939E-01  0.469E-01  0.469E-01
  10.549  0.172E+00  0.858E-01  0.858E-01
  10.551  0.153E+00  0.767E-01  0.767E-01
  10.553  0.214E+00  0.107E+00  0.107E+00
  10.555  0.208E+00  0.104E+00  0.104E+00
  10.557  0.849E-01  0.424E-01  0.424E-01
  10.559  0.434E-01  0.217E-01  0.217E-01
  10.561  0.118E+00  0.588E-01  0.588E-01
  10.563  0.161E+00  0.805E-01  0.805E-01
  10.565  0.127E+00  0.635E-01  0.635E-01
  10.567  0.444E-01  0.222E-01  0.222E-01
  10.569  0.158E+00  0.790E-01  0.790E-01
  10.571  0.301E+00  0.150E+00  0.150E+00
  10.573  0.163E+00  0.814E-01  0.814E-01
  10.575  0.944E-01  0.472E-01  0.472E-01
  10.577  0.663E-01  0.331E-01  0.331E-01
  10.579  0.122E+00  0.608E-01  0.608E-01
  10.581  0.458E-01  0.229E-01  0.229E-01
  10.583  0.240E-02  0.120E-02  0.120E-02
  10.585  0.341E-04  0.171E-04  0.171E-04
  10.587  0.132E-05  0.662E-06  0.662E-06
  10.589  0.174E-03  0.868E-04  0.868E-04
  10.591  0.952E-02  0.476E-02  0.476E-02
  10.593  0.722E-01  0.361E-01  0.361E-01
  10.595  0.115E+00  0.577E-01  0.577E-01
  10.597  0.184E+00  0.921E-01  0.921E-01
  10.599  0.162E+00  0.809E-01  0.809E-01
  10.601  0.103E+00  0.516E-01  0.516E-01
  10.603  0.988E-01  0.494E-01  0.494E-01
  10.605  0.144E+00  0.722E-01  0.722E-01
  10.607  0.152E+00  0.759E-01  0.759E-01
  10.609  0.131E+00  0.654E-01  0.654E-01
  10.611  0.623E-01  0.312E-01  0.312E-01
  10.613  0.302E-01  0.151E-01  0.151E-01
  10.615  0.767E-02  0.383E-02  0.383E-02
  10.617  0.640E-02  0.320E-02  0.320E-02
  10.619  0.272E-01  0.136E-01  0.136E-01
  10.621  0.104E+00  0.520E-01  0.520E-01
  10.623  0.260E+00  0.130E+00  0.130E+00
  10.625  0.307E+00  0.153E+00  0.153E+00
  10.627  0.835E-01  0.417E-01  0.417E-01
  10.629  0.171E+00  0.856E-01  0.856E-01
  10.631  0.296E+00  0.148E+00  0.148E+00
  10.633  0.262E+00  0.131E+00  0.131E+00
  10.635  0.817E-01  0.409E-01  0.409E-01
  10.637  0.567E-01  0.284E-01  0.284E-01
  10.639  0.730E-01  0.365E-01  0.365E-01
  10.641  0.148E-01  0.742E-02  0.742E-02
  10.643  0.425E-01  0.213E-01  0.213E-01
  10.645  0.252E+00  0.126E+00  0.126E+00
  10.647  0.367E+00  0.183E+00  0.183E+00
  10.649  0.211E+00  0.105E+00  0.105E+00
  10.651  0.127E+00  0.633E-01  0.633E-01
  10.653  0.161E+00  0.803E-01  0.803E-01
  10.655  0.111E+00  0.555E-01  0.555E-01
  10.657  0.126E-01  0.630E-02  0.630E-02
  10.659  0.342E-02  0.171E-02  0.171E-02
  10.661  0.535E-01  0.268E-01  0.268E-01
  10.663  0.121E+00  0.603E-01  0.603E-01
  10.665  0.368E-01  0.184E-01  0.184E-01
  10.667  0.849E-02  0.424E-02  0.424E-02
  10.669  0.662E-01  0.331E-01  0.331E-01
  10.671  0.119E+00  0.593E-01  0.593E-01
  10.673  0.797E-01  0.398E-01  0.398E-01
  10.675  0.157E-01  0.784E-02  0.784E-02
  10.677  0.234E-01  0.117E-01  0.117E-01
  10.679  0.108E+00  0.540E-01  0.540E-01
  10.681  0.808E-01  0.404E-01  0.404E-01
  10.683  0.892E-02  0.446E-02  0.446E-02
  10.685  0.149E-03  0.746E-04  0.746E-04
  10.687  0.258E-03  0.129E-03  0.129E-03
  10.689  0.137E-01  0.685E-02  0.685E-02
  10.691  0.113E+00  0.564E-01  0.564E-01
  10.693  0.235E+00  0.118E+00  0.118E+00
  10.695  0.185E+00  0.923E-01  0.923E-01
  10.697  0.128E+00  0.642E-01  0.642E-01
  10.699  0.264E+00  0.132E+00  0.132E+00
  10.701  0.215E+00  0.108E+00  0.108E+00
  10.703  0.244E+00  0.122E+00  0.122E+00
  10.705  0.802E-01  0.401E-01  0.401E-01
  10.707  0.309E-01  0.155E-01  0.155E-01
  10.709  0.686E-01  0.343E-01  0.343E-01
  10.711  0.495E-01  0.248E-01  0.248E-01
  10.713  0.898E-01  0.449E-01  0.449E-01
  10.715  0.455E-01  0.228E-01  0.228E-01
  10.717  0.120E-01  0.601E-02  0.601E-02
  10.719  0.513E-02  0.256E-02  0.256E-02
  10.721  0.308E-01  0.154E-01  0.154E-01
  10.723  0.872E-01  0.436E-01  0.436E-01
  10.725  0.139E+00  0.697E-01  0.697E-01
  10.727  0.200E+00  0.100E+00  0.100E+00
  10.729  0.618E-01  0.309E-01  0.309E-01
  10.731  0.157E-01  0.785E-02  0.785E-02
  10.733  0.774E-02  0.387E-02  0.387E-02
  10.735  0.127E-02  0.633E-03  0.633E-03
  10.737  0.122E-01  0.609E-02  0.609E-02
  10.739  0.656E-01  0.328E-01  0.328E-01
  10.741  0.488E-01  0.244E-01  0.244E-01
  10.743  0.528E-02  0.264E-02  0.264E-02
  10.745  0.912E-02  0.456E-02  0.456E-02
  10.747  0.341E-01  0.171E-01  0.171E-01
  10.749  0.257E-01  0.129E-01  0.129E-01
  10.751  0.314E-01  0.157E-01  0.157E-01
  10.753  0.146E+00  0.728E-01  0.728E-01
  10.755  0.189E+00  0.946E-01  0.946E-01
  10.757  0.185E+00  0.924E-01  0.924E-01
  10.759  0.267E+00  0.134E+00  0.134E+00
  10.761  0.147E+00  0.733E-01  0.733E-01
  10.763  0.167E-01  0.836E-02  0.836E-02
  10.765  0.662E-01  0.331E-01  0.331E-01
  10.767  0.307E+00  0.153E+00  0.153E+00
  10.769  0.324E+00  0.162E+00  0.162E+00
  10.771  0.668E-01  0.334E-01  0.334E-01
  10.773  0.720E-02  0.360E-02  0.360E-02
  10.775  0.149E-01  0.746E-02  0.746E-02
  10.777  0.756E-02  0.378E-02  0.378E-02
  10.779  0.127E-01  0.637E-02  0.637E-02
  10.781  0.138E+00  0.689E-01  0.689E-01
  10.783  0.331E+00  0.166E+00  0.166E+00
  10.785  0.251E+00  0.125E+00  0.125E+00
  10.787  0.625E-01  0.312E-01  0.312E-01
  10.789  0.744E-01  0.372E-01  0.372E-01
  10.791  0.173E+00  0.866E-01  0.866E-01
  10.793  0.162E+00  0.811E-01  0.811E-01
  10.795  0.134E+00  0.669E-01  0.669E-01
  10.797  0.309E-01  0.155E-01  0.155E-01
  10.799  0.717E-02  0.358E-02  0.358E-02
  10.801  0.673E-02  0.336E-02  0.336E-02
  10.803  0.515E-02  0.258E-02  0.258E-02
  10.805  0.458E-01  0.229E-01  0.229E-01
  10.807  0.132E+00  0.660E-01  0.660E-01
  10.809  0.214E+00  0.107E+00  0.107E+00
  10.811  0.182E+00  0.908E-01  0.908E-01
  10.813  0.650E-01  0.325E-01  0.325E-01
  10.815  0.425E-01  0.212E-01  0.212E-01
  10.817  0.203E-01  0.102E-01  0.102E-01
  10.819  0.120E-01  0.602E-02  0.602E-02
  10.821  0.190E-01  0.950E-02  0.950E-02
  10.823  0.166E-01  0.829E-02  0.829E-02
  10.825  0.104E+00  0.518E-01  0.518E-01
  10.827  0.215E+00  0.107E+00  0.107E+00
  10.829  0.234E+00  0.117E+00  0.117E+00
  10.831  0.126E+00  0.630E-01  0.630E-01
  10.833  0.168E-01  0.839E-02  0.839E-02
  10.835  0.429E-03  0.214E-03  0.214E-03
  10.837  0.385E-03  0.192E-03  0.192E-03
  10.839  0.162E-01  0.811E-02  0.811E-02
  10.841  0.121E+00  0.603E-01  0.603E-01
  10.843  0.159E+00  0.795E-01  0.795E-01
  10.845  0.497E-01  0.248E-01  0.248E-01
  10.847  0.630E-02  0.315E-02  0.315E-02
  10.849  0.351E-02  0.176E-02  0.176E-02
  10.851  0.260E-01  0.130E-01  0.130E-01
  10.853  0.682E-01  0.341E-01  0.341E-01
  10.855  0.277E-01  0.139E-01  0.139E-01
  10.857  0.438E-01  0.219E-01  0.219E-01
  10.859  0.114E+00  0.572E-01  0.572E-01
  10.861  0.150E+00  0.750E-01  0.750E-01
  10.863  0.304E+00  0.152E+00  0.152E+00
  10.865  0.286E+00  0.143E+00  0.143E+00
  10.867  0.120E+00  0.598E-01  0.598E-01
  10.869  0.539E-01  0.270E-01  0.270E-01
  10.871  0.167E-01  0.837E-02  0.837E-02
  10.873  0.558E-01  0.279E-01  0.279E-01
  10.875  0.447E-01  0.224E-01  0.224E-01
  10.877  0.915E-02  0.458E-02  0.458E-02
  10.879  0.203E-01  0.101E-01  0.101E-01
  10.881  0.493E-01  0.246E-01  0.246E-01
  10.883  0.381E-01  0.191E-01  0.191E-01
  10.885  0.230E-01  0.115E-01  0.115E-01
  10.887  0.445E-01  0.223E-01  0.223E-01
  10.889  0.450E-01  0.225E-01  0.225E-01
  10.891  0.432E-01  0.216E-01  0.216E-01
  10.893  0.600E-01  0.300E-01  0.300E-01
  10.895  0.217E-01  0.109E-01  0.109E-01
  10.897  0.115E+00  0.577E-01  0.577E-01
  10.899  0.267E+00  0.134E+00  0.134E+00
  10.901  0.130E+00  0.650E-01  0.650E-01
  10.903  0.770E-01  0.385E-01  0.385E-01
  10.905  0.577E-01  0.289E-01  0.289E-01
  10.907  0.238E-01  0.119E-01  0.119E-01
  10.909  0.588E-01  0.294E-01  0.294E-01
  10.911  0.491E-01  0.246E-01  0.246E-01
  10.913  0.150E+00  0.750E-01  0.750E-01
  10.915  0.304E+00  0.152E+00  0.152E+00
  10.917  0.187E+00  0.935E-01  0.935E-01
  10.919  0.149E+00  0.744E-01  0.744E-01
  10.921  0.202E+00  0.101E+00  0.101E+00
  10.923  0.158E+00  0.790E-01  0.790E-01
  10.925  0.879E-01  0.439E-01  0.439E-01
  10.927  0.811E-01  0.405E-01  0.405E-01
  10.929  0.358E-01  0.179E-01  0.179E-01
  10.931  0.229E-01  0.115E-01  0.115E-01
  10.933  0.200E+00  0.100E+00  0.100E+00
  10.935  0.315E+00  0.158E+00  0.158E+00
  10.937  0.909E-01  0.454E-01  0.454E-01
  10.939  0.621E-02  0.310E-02  0.310E-02
  10.941  0.423E-02  0.211E-02  0.211E-02
  10.943  0.775E-01  0.388E-01  0.388E-01
  10.945  0.209E+00  0.104E+00  0.104E+00
  10.947  0.115E+00  0.577E-01  0.577E-01
  10.949  0.110E+00  0.551E-01  0.551E-01
  10.951  0.443E-01  0.222E-01  0.222E-01
  10.953  0.926E-02  0.463E-02  0.463E-02
  10.955  0.560E-01  0.280E-01  0.280E-01
  10.957  0.962E-01  0.481E-01  0.481E-01
  10.959  0.659E-01  0.330E-01  0.330E-01
  10.961  0.252E-01  0.126E-01  0.126E-01
  10.963  0.512E-01  0.256E-01  0.256E-01
  10.965  0.849E-01  0.425E-01  0.425E-01
  10.967  0.176E+00  0.881E-01  0.881E-01
  10.969  0.153E+00  0.767E-01  0.767E-01
  10.971  0.112E+00  0.561E-01  0.561E-01
  10.973  0.171E+00  0.854E-01  0.854E-01
  10.975  0.968E-01  0.484E-01  0.484E-01
  10.977  0.123E+00  0.613E-01  0.613E-01
  10.979  0.134E+00  0.672E-01  0.672E-01
  10.981  0.119E+00  0.596E-01  0.596E-01
  10.983  0.823E-01  0.412E-01  0.412E-01
  10.985  0.130E-01  0.650E-02  0.650E-02
  10.987  0.231E-01  0.115E-01  0.115E-01
  10.989  0.731E-01  0.365E-01  0.365E-01
  10.991  0.488E-01  0.244E-01  0.244E-01
  10.993  0.126E-01  0.630E-02  0.630E-02
  10.995  0.779E-01  0.390E-01  0.390E-01
  10.997  0.166E+00  0.831E-01  0.831E-01
  10.999  0.225E+00  0.112E+00  0.112E+00
  11.001  0.216E+00  0.108E+00  0.108E+00
  11.003  0.753E-01  0.376E-01  0.376E-01
  11.005  0.602E-01  0.301E-01  0.301E-01
  11.007  0.768E-01  0.384E-01  0.384E-01
  11.009  0.124E+00  0.620E-01  0.620E-01
  11.011  0.901E-01  0.450E-01  0.450E-01
  11.013  0.135E-01  0.676E-02  0.676E-02
  11.015  0.346E-03  0.173E-03  0.173E-03
  11.017  0.113E-03  0.563E-04  0.563E-04
  11.019  0.219E-02  0.109E-02  0.109E-02
  11.021  0.658E-02  0.329E-02  0.329E-02
  11.023  0.245E-01  0.122E-01  0.122E-01
  11.025  0.160E+00  0.800E-01  0.800E-01
  11.027  0.178E+00  0.892E-01  0.892E-01
  11.029  0.184E+00  0.921E-01  0.921E-01
  11.031  0.286E+00  0.143E+00  0.143E+00
  11.033  0.994E-01  0.497E-01  0.497E-01
  11.035  0.607E-01  0.304E-01  0.304E-01
  11.037  0.571E-01  0.286E-01  0.286E-01
  11.039  0.323E-01  0.162E-01  0.162E-01
  11.041  0.335E-02  0.168E-02  0.168E-02
  11.043  0.527E-02  0.264E-02  0.264E-02
  11.045  0.354E-01  0.177E-01  0.177E-01
  11.047  0.336E-01  0.168E-01  0.168E-01
  11.049  0.267E-01  0.133E-01  0.133E-01
  11.051  0.104E+00  0.522E-01  0.522E-01
  11.053  0.704E-01  0.352E-01  0.352E-01
  11.055  0.100E+00  0.500E-01  0.500E-01
  11.057  0.325E+00  0.163E+00  0.163E+00
  11.059  0.214E+00  0.107E+00  0.107E+00
  11.061  0.996E-01  0.498E-01  0.498E-01
  11.063  0.190E+00  0.949E-01  0.949E-01
  11.065  0.112E+00  0.561E-01  0.561E-01
  11.067  0.355E-01  0.177E-01  0.177E-01
  11.069  0.490E-01  0.245E-01  0.245E-01
  11.071  0.235E-01  0.118E-01  0.118E-01
  11.073  0.817E-02  0.409E-02  0.409E-02
  11.075  0.667E-01  0.333E-01  0.333E-01
  11.077  0.172E+00  0.861E-01  0.861E-01
  11.079  0.208E+00  0.104E+00  0.104E+00
  11.081  0.281E+00  0.141E+00  0.141E+00
  11.083  0.217E+00  0.109E+00  0.109E+00
  11.085  0.643E-01  0.322E-01  0.322E-01
  11.087  0.365E-01  0.182E-01  0.182E-01
  11.089  0.593E-01  0.297E-01  0.297E-01
  11.091  0.119E+00  0.597E-01  0.597E-01
  11.093  0.120E+00  0.599E-01  0.599E-01
  11.095  0.236E-01  0.118E-01  0.118E-01
  11.097  0.326E-02  0.163E-02  0.163E-02
  11.099  0.428E-01  0.214E-01  0.214E-01
  11.101  0.223E+00  0.111E+00  0.111E+00
  11.103  0.197E+00  0.986E-01  0.986E-01
  11.105  0.178E+00  0.888E-01  0.888E-01
  11.107  0.948E-01  0.474E-01  0.474E-01
  11.109  0.154E-01  0.771E-02  0.771E-02
  11.111  0.336E-01  0.168E-01  0.168E-01
  11.113  0.610E-01  0.305E-01  0.305E-01
  11.115  0.244E+00  0.122E+00  0.122E+00
  11.117  0.273E+00  0.137E+00  0.137E+00
  11.119  0.518E-01  0.259E-01  0.259E-01
  11.121  0.280E-02  0.140E-02  0.140E-02
  11.123  0.501E-01  0.250E-01  0.250E-01
  11.125  0.273E+00  0.136E+00  0.136E+00
  11.127  0.455E+00  0.227E+00  0.227E+00
  11.129  0.604E+00  0.302E+00  0.302E+00
  11.131  0.632E+00  0.316E+00  0.316E+00
  11.133  0.529E+00  0.265E+00  0.265E+00
  11.135  0.933E-01  0.466E-01  0.466E-01
  11.137  0.876E-02  0.438E-02  0.438E-02
  11.139  0.108E+00  0.541E-01  0.541E-01
  11.141  0.497E+00  0.249E+00  0.249E+00
  11.143  0.387E+00  0.193E+00  0.193E+00
  11.145  0.143E+00  0.715E-01  0.715E-01
  11.147  0.676E-01  0.338E-01  0.338E-01
  11.149  0.277E-01  0.139E-01  0.139E-01
  11.151  0.250E-01  0.125E-01  0.125E-01
  11.153  0.887E-01  0.444E-01  0.444E-01
  11.155  0.426E+00  0.213E+00  0.213E+00
  11.157  0.592E+00  0.296E+00  0.296E+00
  11.159  0.288E+00  0.144E+00  0.144E+00
  11.161  0.402E-01  0.201E-01  0.201E-01
  11.163  0.864E-02  0.432E-02  0.432E-02
  11.165  0.498E-02  0.249E-02  0.249E-02
  11.167  0.313E-02  0.156E-02  0.156E-02
  11.169  0.356E-01  0.178E-01  0.178E-01
  11.171  0.204E+00  0.102E+00  0.102E+00
  11.173  0.160E+00  0.799E-01  0.799E-01
  11.175  0.255E-01  0.128E-01  0.128E-01
  11.177  0.141E+00  0.704E-01  0.704E-01
  11.179  0.432E+00  0.216E+00  0.216E+00
  11.181  0.362E+00  0.181E+00  0.181E+00
  11.183  0.158E+00  0.790E-01  0.790E-01
  11.185  0.232E+00  0.116E+00  0.116E+00
  11.187  0.195E+00  0.976E-01  0.976E-01
  11.189  0.270E+00  0.135E+00  0.135E+00
  11.191  0.178E+00  0.889E-01  0.889E-01
  11.193  0.250E-01  0.125E-01  0.125E-01
  11.195  0.269E-01  0.135E-01  0.135E-01
  11.197  0.595E-01  0.297E-01  0.297E-01
  11.199  0.587E-01  0.293E-01  0.293E-01
  11.201  0.527E-01  0.263E-01  0.263E-01
  11.203  0.813E-01  0.407E-01  0.407E-01
  11.205  0.227E+00  0.114E+00  0.114E+00
  11.207  0.127E+00  0.635E-01  0.635E-01
  11.209  0.954E-01  0.477E-01  0.477E-01
  11.211  0.135E+00  0.673E-01  0.673E-01
  11.213  0.565E-01  0.283E-01  0.283E-01
  11.215  0.104E+00  0.519E-01  0.519E-01
  11.217  0.513E-01  0.257E-01  0.257E-01
  11.219  0.144E-01  0.720E-02  0.720E-02
  11.221  0.125E+00  0.624E-01  0.624E-01
  11.223  0.196E+00  0.979E-01  0.979E-01
  11.225  0.422E-01  0.211E-01  0.211E-01
  11.227  0.125E-02  0.626E-03  0.626E-03
  11.229  0.537E-05  0.268E-05  0.268E-05
  11.231  0.144E-03  0.718E-04  0.718E-04
  11.233  0.114E-01  0.572E-02  0.572E-02
  11.235  0.141E+00  0.707E-01  0.707E-01
  11.237  0.306E+00  0.153E+00  0.153E+00
  11.239  0.174E+00  0.870E-01  0.870E-01
  11.241  0.308E-01  0.154E-01  0.154E-01
  11.243  0.631E-01  0.315E-01  0.315E-01
  11.245  0.181E+00  0.905E-01  0.905E-01
  11.247  0.946E-01  0.473E-01  0.473E-01
  11.249  0.552E-01  0.276E-01  0.276E-01
  11.251  0.476E-01  0.238E-01  0.238E-01
  11.253  0.190E-01  0.952E-02  0.952E-02
  11.255  0.244E-01  0.122E-01  0.122E-01
  11.257  0.343E-01  0.171E-01  0.171E-01
  11.259  0.881E-02  0.441E-02  0.441E-02
  11.261  0.118E-02  0.588E-03  0.588E-03
  11.263  0.228E-03  0.114E-03  0.114E-03
  11.265  0.930E-05  0.465E-05  0.465E-05
  11.267  0.512E-03  0.256E-03  0.256E-03
  11.269  0.251E-01  0.126E-01  0.126E-01
  11.271  0.167E+00  0.835E-01  0.835E-01
  11.273  0.152E+00  0.759E-01  0.759E-01
  11.275  0.193E-01  0.967E-02  0.967E-02
  11.277  0.381E-03  0.191E-03  0.191E-03
  11.279  0.147E-04  0.733E-05  0.733E-05
  11.281  0.653E-03  0.326E-03  0.326E-03
  11.283  0.535E-02  0.268E-02  0.268E-02
  11.285  0.196E-01  0.982E-02  0.982E-02
  11.287  0.526E-01  0.263E-01  0.263E-01
  11.289  0.105E+00  0.525E-01  0.525E-01
  11.291  0.176E+00  0.879E-01  0.879E-01
  11.293  0.143E+00  0.716E-01  0.716E-01
  11.295  0.204E-01  0.102E-01  0.102E-01
  11.297  0.232E-01  0.116E-01  0.116E-01
  11.299  0.116E+00  0.581E-01  0.581E-01
  11.301  0.131E+00  0.656E-01  0.656E-01
  11.303  0.411E-01  0.205E-01  0.205E-01
  11.305  0.739E-02  0.369E-02  0.369E-02
  11.307  0.800E-01  0.400E-01  0.400E-01
  11.309  0.471E+00  0.236E+00  0.236E+00
  11.311  0.425E+00  0.212E+00  0.212E+00
  11.313  0.228E+00  0.114E+00  0.114E+00
  11.315  0.577E+00  0.288E+00  0.288E+00
  11.317  0.279E+00  0.139E+00  0.139E+00
  11.319  0.194E-01  0.969E-02  0.969E-02
  11.321  0.191E-03  0.957E-04  0.957E-04
  11.323  0.266E-06  0.133E-06  0.133E-06
  11.325  0.537E-06  0.268E-06  0.268E-06
  11.327  0.271E-03  0.135E-03  0.135E-03
  11.329  0.195E-01  0.976E-02  0.976E-02
  11.331  0.208E+00  0.104E+00  0.104E+00
  11.333  0.347E+00  0.173E+00  0.173E+00
  11.335  0.102E+00  0.509E-01  0.509E-01
  11.337  0.963E-02  0.481E-02  0.481E-02
  11.339  0.946E-02  0.473E-02  0.473E-02
  11.341  0.562E-02  0.281E-02  0.281E-02
  11.343  0.552E-02  0.276E-02  0.276E-02
  11.345  0.261E-01  0.130E-01  0.130E-01
  11.347  0.475E-01  0.238E-01  0.238E-01
  11.349  0.119E+00  0.595E-01  0.595E-01
  11.351  0.210E+00  0.105E+00  0.105E+00
  11.353  0.792E-01  0.396E-01  0.396E-01
  11.355  0.901E-01  0.451E-01  0.451E-01
  11.357  0.241E+00  0.120E+00  0.120E+00
  11.359  0.332E+00  0.166E+00  0.166E+00
  11.361  0.319E+00  0.160E+00  0.160E+00
  11.363  0.139E+00  0.693E-01  0.693E-01
  11.365  0.124E+00  0.622E-01  0.622E-01
  11.367  0.444E-01  0.222E-01  0.222E-01
  11.369  0.119E-01  0.593E-02  0.593E-02
  11.371  0.124E-02  0.619E-03  0.619E-03
  11.373  0.487E-04  0.244E-04  0.244E-04
  11.375  0.425E-03  0.213E-03  0.213E-03
  11.377  0.818E-02  0.409E-02  0.409E-02
  11.379  0.214E-01  0.107E-01  0.107E-01
  11.381  0.886E-02  0.443E-02  0.443E-02
  11.383  0.194E-01  0.968E-02  0.968E-02
  11.385  0.828E-01  0.414E-01  0.414E-01
  11.387  0.632E-01  0.316E-01  0.316E-01
  11.389  0.119E-01  0.593E-02  0.593E-02
  11.391  0.118E-02  0.592E-03  0.592E-03
  11.393  0.404E-02  0.202E-02  0.202E-02
  11.395  0.105E+00  0.527E-01  0.527E-01
  11.397  0.462E+00  0.231E+00  0.231E+00
  11.399  0.354E+00  0.177E+00  0.177E+00
  11.401  0.715E-01  0.358E-01  0.358E-01
  11.403  0.144E-01  0.720E-02  0.720E-02
  11.405  0.775E-01  0.387E-01  0.387E-01
  11.407  0.118E+00  0.590E-01  0.590E-01
  11.409  0.253E-01  0.126E-01  0.126E-01
  11.411  0.298E-02  0.149E-02  0.149E-02
  11.413  0.407E-02  0.204E-02  0.204E-02
  11.415  0.102E-02  0.510E-03  0.510E-03
  11.417  0.931E-03  0.465E-03  0.465E-03
  11.419  0.106E-01  0.530E-02  0.530E-02
  11.421  0.181E-01  0.904E-02  0.904E-02
  11.423  0.510E-02  0.255E-02  0.255E-02
  11.425  0.530E-02  0.265E-02  0.265E-02
  11.427  0.488E-01  0.244E-01  0.244E-01
  11.429  0.712E-01  0.356E-01  0.356E-01
  11.431  0.367E-01  0.183E-01  0.183E-01
  11.433  0.107E+00  0.535E-01  0.535E-01
  11.435  0.895E-01  0.448E-01  0.448E-01
  11.437  0.214E-01  0.107E-01  0.107E-01
  11.439  0.825E-01  0.412E-01  0.412E-01
  11.441  0.181E+00  0.906E-01  0.906E-01
  11.443  0.289E+00  0.144E+00  0.144E+00
  11.445  0.267E+00  0.133E+00  0.133E+00
  11.447  0.975E-01  0.488E-01  0.488E-01
  11.449  0.377E-01  0.188E-01  0.188E-01
  11.451  0.147E-01  0.734E-02  0.734E-02
  11.453  0.193E-02  0.965E-03  0.965E-03
  11.455  0.140E-02  0.700E-03  0.700E-03
  11.457  0.676E-02  0.338E-02  0.338E-02
  11.459  0.163E-01  0.817E-02  0.817E-02
  11.461  0.596E-02  0.298E-02  0.298E-02
  11.463  0.157E-02  0.783E-03  0.783E-03
  11.465  0.186E-02  0.929E-03  0.929E-03
  11.467  0.252E-01  0.126E-01  0.126E-01
  11.469  0.713E-01  0.357E-01  0.357E-01
  11.471  0.276E-01  0.138E-01  0.138E-01
  11.473  0.146E-02  0.731E-03  0.731E-03
  11.475  0.192E-02  0.960E-03  0.960E-03
  11.477  0.417E-01  0.208E-01  0.208E-01
  11.479  0.124E+00  0.619E-01  0.619E-01
  11.481  0.558E-01  0.279E-01  0.279E-01
  11.483  0.403E-01  0.201E-01  0.201E-01
  11.485  0.122E+00  0.609E-01  0.609E-01
  11.487  0.749E-01  0.375E-01  0.375E-01
  11.489  0.194E-01  0.970E-02  0.970E-02
  11.491  0.281E-01  0.140E-01  0.140E-01
  11.493  0.138E+00  0.691E-01  0.691E-01
  11.495  0.196E+00  0.978E-01  0.978E-01
  11.497  0.741E-01  0.371E-01  0.371E-01
  11.499  0.245E+00  0.123E+00  0.123E+00
  11.501  0.309E+00  0.155E+00  0.155E+00
  11.503  0.147E+00  0.735E-01  0.735E-01
  11.505  0.983E-01  0.491E-01  0.491E-01
  11.507  0.155E-01  0.773E-02  0.773E-02
  11.509  0.710E-02  0.355E-02  0.355E-02
  11.511  0.566E-02  0.283E-02  0.283E-02
  11.513  0.637E-03  0.318E-03  0.318E-03
  11.515  0.188E-04  0.938E-05  0.938E-05
  11.517  0.179E-03  0.893E-04  0.893E-04
  11.519  0.614E-03  0.307E-03  0.307E-03
  11.521  0.115E-02  0.574E-03  0.574E-03
  11.523  0.438E-02  0.219E-02  0.219E-02
  11.525  0.249E-01  0.124E-01  0.124E-01
  11.527  0.441E-01  0.221E-01  0.221E-01
  11.529  0.777E-01  0.389E-01  0.389E-01
  11.531  0.767E-01  0.383E-01  0.383E-01
  11.533  0.123E-01  0.614E-02  0.614E-02
  11.535  0.570E-02  0.285E-02  0.285E-02
  11.537  0.311E-01  0.156E-01  0.156E-01
  11.539  0.496E-01  0.248E-01  0.248E-01
  11.541  0.584E-01  0.292E-01  0.292E-01
  11.543  0.116E+00  0.580E-01  0.580E-01
  11.545  0.672E-01  0.336E-01  0.336E-01
  11.547  0.153E+00  0.763E-01  0.763E-01
  11.549  0.252E+00  0.126E+00  0.126E+00
  11.551  0.857E-01  0.429E-01  0.429E-01
  11.553  0.688E-02  0.344E-02  0.344E-02
  11.555  0.927E-02  0.464E-02  0.464E-02
  11.557  0.767E-02  0.383E-02  0.383E-02
  11.559  0.283E-02  0.142E-02  0.142E-02
  11.561  0.357E-01  0.178E-01  0.178E-01
  11.563  0.155E+00  0.773E-01  0.773E-01
  11.565  0.115E+00  0.576E-01  0.576E-01
  11.567  0.144E-01  0.718E-02  0.718E-02
  11.569  0.125E-01  0.624E-02  0.624E-02
  11.571  0.678E-01  0.339E-01  0.339E-01
  11.573  0.938E-01  0.469E-01  0.469E-01
  11.575  0.632E-01  0.316E-01  0.316E-01
  11.577  0.101E-01  0.503E-02  0.503E-02
  11.579  0.602E-02  0.301E-02  0.301E-02
  11.581  0.299E-01  0.149E-01  0.149E-01
  11.583  0.917E-01  0.458E-01  0.458E-01
  11.585  0.153E+00  0.766E-01  0.766E-01
  11.587  0.870E-01  0.435E-01  0.435E-01
  11.589  0.110E-01  0.551E-02  0.551E-02
  11.591  0.500E-02  0.250E-02  0.250E-02
  11.593  0.251E-01  0.126E-01  0.126E-01
  11.595  0.453E-01  0.226E-01  0.226E-01
  11.597  0.168E-01  0.840E-02  0.840E-02
  11.599  0.645E-02  0.323E-02  0.323E-02
  11.601  0.573E-02  0.286E-02  0.286E-02
  11.603  0.377E-01  0.188E-01  0.188E-01
  11.605  0.187E+00  0.934E-01  0.934E-01
  11.607  0.266E+00  0.133E+00  0.133E+00
  11.609  0.199E+00  0.993E-01  0.993E-01
  11.611  0.566E-01  0.283E-01  0.283E-01
  11.613  0.442E-01  0.221E-01  0.221E-01
  11.615  0.516E-01  0.258E-01  0.258E-01
  11.617  0.469E-01  0.235E-01  0.235E-01
  11.619  0.120E-01  0.601E-02  0.601E-02
  11.621  0.902E-02  0.451E-02  0.451E-02
  11.623  0.156E-01  0.782E-02  0.782E-02
  11.625  0.461E-01  0.231E-01  0.231E-01
  11.627  0.276E-01  0.138E-01  0.138E-01
