# E (eV)   ldos(E)   pdos(E)_1   pdos(E)_2   
   7.605  0.136E-02  0.681E-03  0.681E-03
   7.607  0.861E-01  0.431E-01  0.431E-01
   7.609  0.817E+00  0.408E+00  0.408E+00
   7.611  0.186E+01  0.930E+00  0.930E+00
   7.613  0.219E+01  0.109E+01  0.109E+01
   7.615  0.975E+00  0.487E+00  0.487E+00
   7.617  0.102E+00  0.508E-01  0.508E-01
   7.619  0.353E+00  0.176E+00  0.176E+00
   7.621  0.122E+01  0.610E+00  0.610E+00
   7.623  0.573E+00  0.287E+00  0.287E+00
   7.625  0.364E-01  0.182E-01  0.182E-01
   7.627  0.313E-03  0.157E-03  0.157E-03
   7.629  0.365E-06  0.182E-06  0.182E-06
   7.631  0.574E-10  0.287E-10  0.287E-10
   7.633  0.123E-14  0.617E-15  0.617E-15
   7.635  0.943E-12  0.472E-12  0.472E-12
   7.637  0.135E-07  0.676E-08  0.676E-08
   7.639  0.265E-04  0.133E-04  0.133E-04
   7.641  0.725E-02  0.362E-02  0.362E-02
   7.643  0.288E+00  0.144E+00  0.144E+00
   7.645  0.180E+01  0.902E+00  0.902E+00
   7.647  0.193E+01  0.964E+00  0.964E+00
   7.649  0.372E+00  0.186E+00  0.186E+00
   7.651  0.425E+00  0.213E+00  0.213E+00
   7.653  0.126E+01  0.629E+00  0.629E+00
   7.655  0.519E+00  0.260E+00  0.260E+00
   7.657  0.145E+00  0.727E-01  0.727E-01
   7.659  0.789E+00  0.394E+00  0.394E+00
   7.661  0.721E+00  0.360E+00  0.360E+00
   7.663  0.932E-01  0.466E-01  0.466E-01
   7.665  0.165E+00  0.826E-01  0.826E-01
   7.667  0.893E+00  0.446E+00  0.446E+00
   7.669  0.659E+00  0.330E+00  0.330E+00
   7.671  0.659E-01  0.329E-01  0.329E-01
   7.673  0.599E-02  0.300E-02  0.300E-02
   7.675  0.266E+00  0.133E+00  0.133E+00
   7.677  0.194E+01  0.972E+00  0.972E+00
   7.679  0.199E+01  0.997E+00  0.997E+00
   7.681  0.448E+00  0.224E+00  0.224E+00
   7.683  0.107E+01  0.534E+00  0.534E+00
   7.685  0.106E+01  0.530E+00  0.530E+00
   7.687  0.799E+00  0.399E+00  0.399E+00
   7.689  0.537E+00  0.268E+00  0.268E+00
   7.691  0.564E-01  0.282E-01  0.282E-01
   7.693  0.806E-03  0.403E-03  0.403E-03
   7.695  0.156E-05  0.779E-06  0.779E-06
   7.697  0.407E-09  0.204E-09  0.204E-09
   7.699  0.793E-09  0.396E-09  0.396E-09
   7.701  0.336E-05  0.168E-05  0.168E-05
   7.703  0.194E-02  0.969E-03  0.969E-03
   7.705  0.152E+00  0.759E-01  0.759E-01
   7.707  0.162E+01  0.810E+00  0.810E+00
   7.709  0.237E+01  0.118E+01  0.118E+01
   7.711  0.877E+00  0.439E+00  0.439E+00
   7.713  0.131E+01  0.657E+00  0.657E+00
   7.715  0.554E+00  0.277E+00  0.277E+00
   7.717  0.319E-01  0.160E-01  0.160E-01
   7.719  0.249E-03  0.124E-03  0.124E-03
   7.721  0.268E-06  0.134E-06  0.134E-06
   7.723  0.134E-04  0.671E-05  0.671E-05
   7.725  0.473E-02  0.236E-02  0.236E-02
   7.727  0.232E+00  0.116E+00  0.116E+00
   7.729  0.161E+01  0.803E+00  0.803E+00
   7.731  0.156E+01  0.781E+00  0.781E+00
   7.733  0.306E+00  0.153E+00  0.153E+00
   7.735  0.129E+01  0.643E+00  0.643E+00
   7.737  0.263E+01  0.131E+01  0.131E+01
   7.739  0.152E+01  0.761E+00  0.761E+00
   7.741  0.133E+01  0.665E+00  0.665E+00
   7.743  0.337E+00  0.169E+00  0.169E+00
   7.745  0.476E-01  0.238E-01  0.238E-01
   7.747  0.395E-01  0.198E-01  0.198E-01
   7.749  0.602E-01  0.301E-01  0.301E-01
   7.751  0.460E-01  0.230E-01  0.230E-01
   7.753  0.124E-01  0.620E-02  0.620E-02
   7.755  0.379E-01  0.189E-01  0.189E-01
   7.757  0.492E-01  0.246E-01  0.246E-01
   7.759  0.181E+00  0.905E-01  0.905E-01
   7.761  0.143E+01  0.717E+00  0.717E+00
   7.763  0.282E+01  0.141E+01  0.141E+01
   7.765  0.197E+01  0.987E+00  0.987E+00
   7.767  0.901E+00  0.450E+00  0.450E+00
   7.769  0.967E-01  0.484E-01  0.484E-01
   7.771  0.174E-01  0.871E-02  0.871E-02
   7.773  0.947E-01  0.474E-01  0.474E-01
   7.775  0.798E-01  0.399E-01  0.399E-01
   7.777  0.981E-02  0.491E-02  0.491E-02
   7.779  0.198E-01  0.990E-02  0.990E-02
   7.781  0.840E-01  0.420E-01  0.420E-01
   7.783  0.429E+00  0.215E+00  0.215E+00
   7.785  0.240E+01  0.120E+01  0.120E+01
   7.787  0.301E+01  0.150E+01  0.150E+01
   7.789  0.132E+01  0.660E+00  0.660E+00
   7.791  0.234E+00  0.117E+00  0.117E+00
   7.793  0.308E+00  0.154E+00  0.154E+00
   7.795  0.139E+01  0.695E+00  0.695E+00
   7.797  0.165E+01  0.824E+00  0.824E+00
   7.799  0.361E+00  0.180E+00  0.180E+00
   7.801  0.807E-01  0.404E-01  0.404E-01
   7.803  0.881E+00  0.440E+00  0.440E+00
   7.805  0.345E+01  0.173E+01  0.173E+01
   7.807  0.366E+01  0.183E+01  0.183E+01
   7.809  0.108E+01  0.542E+00  0.542E+00
   7.811  0.694E-01  0.347E-01  0.347E-01
   7.813  0.213E-01  0.106E-01  0.106E-01
   7.815  0.151E+00  0.757E-01  0.757E-01
   7.817  0.174E+00  0.872E-01  0.872E-01
   7.819  0.206E+00  0.103E+00  0.103E+00
   7.821  0.152E+01  0.762E+00  0.762E+00
   7.823  0.395E+01  0.198E+01  0.198E+01
   7.825  0.179E+01  0.893E+00  0.893E+00
   7.827  0.137E+00  0.685E-01  0.685E-01
   7.829  0.169E-02  0.844E-03  0.844E-03
   7.831  0.515E-02  0.257E-02  0.257E-02
   7.833  0.319E+00  0.160E+00  0.160E+00
   7.835  0.283E+01  0.142E+01  0.142E+01
   7.837  0.363E+01  0.182E+01  0.182E+01
   7.839  0.682E+00  0.341E+00  0.341E+00
   7.841  0.964E-01  0.482E-01  0.482E-01
   7.843  0.950E+00  0.475E+00  0.475E+00
   7.845  0.389E+01  0.195E+01  0.195E+01
   7.847  0.294E+01  0.147E+01  0.147E+01
   7.849  0.122E+01  0.612E+00  0.612E+00
   7.851  0.466E+01  0.233E+01  0.233E+01
   7.853  0.515E+01  0.257E+01  0.257E+01
   7.855  0.173E+01  0.864E+00  0.864E+00
   7.857  0.118E+00  0.592E-01  0.592E-01
   7.859  0.121E-02  0.604E-03  0.604E-03
   7.861  0.299E-02  0.149E-02  0.149E-02
   7.863  0.143E+00  0.714E-01  0.714E-01
   7.865  0.926E+00  0.463E+00  0.463E+00
   7.867  0.820E+00  0.410E+00  0.410E+00
   7.869  0.182E+00  0.908E-01  0.908E-01
   7.871  0.118E+00  0.590E-01  0.590E-01
   7.873  0.623E-01  0.312E-01  0.312E-01
   7.875  0.241E+00  0.120E+00  0.120E+00
   7.877  0.190E+00  0.950E-01  0.950E-01
   7.879  0.588E-01  0.294E-01  0.294E-01
   7.881  0.546E+00  0.273E+00  0.273E+00
   7.883  0.105E+01  0.524E+00  0.524E+00
   7.885  0.272E+00  0.136E+00  0.136E+00
   7.887  0.957E-02  0.478E-02  0.478E-02
   7.889  0.455E-04  0.228E-04  0.228E-04
   7.891  0.293E-07  0.147E-07  0.147E-07
   7.893  0.138E-06  0.692E-07  0.692E-07
   7.895  0.866E-04  0.433E-04  0.433E-04
   7.897  0.733E-02  0.367E-02  0.367E-02
   7.899  0.840E-01  0.420E-01  0.420E-01
   7.901  0.131E+00  0.653E-01  0.653E-01
   7.903  0.622E-01  0.311E-01  0.311E-01
   7.905  0.474E+00  0.237E+00  0.237E+00
   7.907  0.871E+00  0.435E+00  0.435E+00
   7.909  0.313E+00  0.157E+00  0.157E+00
   7.911  0.325E+00  0.162E+00  0.162E+00
   7.913  0.139E+00  0.694E-01  0.694E-01
   7.915  0.821E-02  0.411E-02  0.411E-02
   7.917  0.658E-04  0.329E-04  0.329E-04
   7.919  0.713E-07  0.357E-07  0.357E-07
   7.921  0.105E-10  0.523E-11  0.523E-11
   7.923  0.774E-13  0.387E-13  0.387E-13
   7.925  0.118E-08  0.592E-09  0.592E-09
   7.927  0.246E-05  0.123E-05  0.123E-05
   7.929  0.691E-03  0.346E-03  0.346E-03
   7.931  0.263E-01  0.131E-01  0.131E-01
   7.933  0.136E+00  0.678E-01  0.678E-01
   7.935  0.119E+00  0.596E-01  0.596E-01
   7.937  0.471E+00  0.236E+00  0.236E+00
   7.939  0.116E+01  0.580E+00  0.580E+00
   7.941  0.393E+00  0.197E+00  0.197E+00
   7.943  0.181E-01  0.903E-02  0.903E-02
   7.945  0.240E-02  0.120E-02  0.120E-02
   7.947  0.758E-01  0.379E-01  0.379E-01
   7.949  0.339E+00  0.169E+00  0.169E+00
   7.951  0.205E+00  0.103E+00  0.103E+00
   7.953  0.168E-01  0.840E-02  0.840E-02
   7.955  0.186E-03  0.931E-04  0.931E-04
   7.957  0.122E-04  0.612E-05  0.612E-05
   7.959  0.384E-02  0.192E-02  0.192E-02
   7.961  0.169E+00  0.844E-01  0.844E-01
   7.963  0.105E+01  0.524E+00  0.524E+00
   7.965  0.108E+01  0.541E+00  0.541E+00
   7.967  0.457E+00  0.229E+00  0.229E+00
   7.969  0.460E+00  0.230E+00  0.230E+00
   7.971  0.281E+00  0.141E+00  0.141E+00
   7.973  0.853E-01  0.427E-01  0.427E-01
   7.975  0.165E+00  0.826E-01  0.826E-01
   7.977  0.105E+00  0.527E-01  0.527E-01
   7.979  0.265E+00  0.132E+00  0.132E+00
   7.981  0.217E+00  0.109E+00  0.109E+00
   7.983  0.244E-01  0.122E-01  0.122E-01
   7.985  0.196E-02  0.981E-03  0.981E-03
   7.987  0.666E-01  0.333E-01  0.333E-01
   7.989  0.422E+00  0.211E+00  0.211E+00
   7.991  0.398E+00  0.199E+00  0.199E+00
   7.993  0.120E+00  0.598E-01  0.598E-01
   7.995  0.318E+00  0.159E+00  0.159E+00
   7.997  0.208E+00  0.104E+00  0.104E+00
   7.999  0.184E-01  0.919E-02  0.919E-02
   8.001  0.220E-03  0.110E-03  0.110E-03
   8.003  0.163E-04  0.817E-05  0.817E-05
   8.005  0.272E-02  0.136E-02  0.136E-02
   8.007  0.663E-01  0.331E-01  0.331E-01
   8.009  0.244E+00  0.122E+00  0.122E+00
   8.011  0.194E+00  0.969E-01  0.969E-01
   8.013  0.706E+00  0.353E+00  0.353E+00
   8.015  0.163E+01  0.817E+00  0.817E+00
   8.017  0.155E+01  0.777E+00  0.777E+00
   8.019  0.565E+00  0.282E+00  0.282E+00
   8.021  0.363E-01  0.181E-01  0.181E-01
   8.023  0.335E-03  0.168E-03  0.168E-03
   8.025  0.118E-05  0.590E-06  0.590E-06
   8.027  0.405E-03  0.202E-03  0.202E-03
   8.029  0.294E-01  0.147E-01  0.147E-01
   8.031  0.290E+00  0.145E+00  0.145E+00
   8.033  0.391E+00  0.196E+00  0.196E+00
   8.035  0.120E+00  0.600E-01  0.600E-01
   8.037  0.708E-01  0.354E-01  0.354E-01
   8.039  0.920E-01  0.460E-01  0.460E-01
   8.041  0.384E+00  0.192E+00  0.192E+00
   8.043  0.261E+00  0.131E+00  0.131E+00
   8.045  0.353E+00  0.177E+00  0.177E+00
   8.047  0.116E+01  0.580E+00  0.580E+00
   8.049  0.592E+00  0.296E+00  0.296E+00
   8.051  0.197E+00  0.987E-01  0.987E-01
   8.053  0.801E-01  0.400E-01  0.400E-01
   8.055  0.530E-02  0.265E-02  0.265E-02
   8.057  0.477E-04  0.238E-04  0.238E-04
   8.059  0.582E-07  0.291E-07  0.291E-07
   8.061  0.277E-06  0.139E-06  0.139E-06
   8.063  0.110E-03  0.552E-04  0.552E-04
   8.065  0.611E-02  0.305E-02  0.305E-02
   8.067  0.618E-01  0.309E-01  0.309E-01
   8.069  0.286E+00  0.143E+00  0.143E+00
   8.071  0.439E+00  0.219E+00  0.219E+00
   8.073  0.221E+00  0.110E+00  0.110E+00
   8.075  0.464E+00  0.232E+00  0.232E+00
   8.077  0.243E+00  0.121E+00  0.121E+00
   8.079  0.173E-01  0.866E-02  0.866E-02
   8.081  0.167E-03  0.836E-04  0.836E-04
   8.083  0.219E-06  0.110E-06  0.110E-06
   8.085  0.381E-05  0.190E-05  0.190E-05
   8.087  0.175E-02  0.874E-03  0.874E-03
   8.089  0.109E+00  0.543E-01  0.543E-01
   8.091  0.914E+00  0.457E+00  0.457E+00
   8.093  0.105E+01  0.524E+00  0.524E+00
   8.095  0.257E+00  0.129E+00  0.129E+00
   8.097  0.159E+00  0.797E-01  0.797E-01
   8.099  0.524E-01  0.262E-01  0.262E-01
   8.101  0.256E+00  0.128E+00  0.128E+00
   8.103  0.488E+00  0.244E+00  0.244E+00
   8.105  0.151E+00  0.757E-01  0.757E-01
   8.107  0.116E-01  0.579E-02  0.579E-02
   8.109  0.242E-03  0.121E-03  0.121E-03
   8.111  0.121E-05  0.603E-06  0.603E-06
   8.113  0.218E-03  0.109E-03  0.109E-03
   8.115  0.211E-01  0.106E-01  0.106E-01
   8.117  0.276E+00  0.138E+00  0.138E+00
   8.119  0.490E+00  0.245E+00  0.245E+00
   8.121  0.117E+00  0.587E-01  0.587E-01
   8.123  0.105E-01  0.523E-02  0.523E-02
   8.125  0.220E+00  0.110E+00  0.110E+00
   8.127  0.988E+00  0.494E+00  0.494E+00
   8.129  0.678E+00  0.339E+00  0.339E+00
   8.131  0.849E+00  0.425E+00  0.425E+00
   8.133  0.111E+01  0.553E+00  0.553E+00
   8.135  0.415E+00  0.207E+00  0.207E+00
   8.137  0.520E+00  0.260E+00  0.260E+00
   8.139  0.194E+00  0.968E-01  0.968E-01
   8.141  0.291E+00  0.146E+00  0.146E+00
   8.143  0.818E+00  0.409E+00  0.409E+00
   8.145  0.672E+00  0.336E+00  0.336E+00
   8.147  0.318E+00  0.159E+00  0.159E+00
   8.149  0.569E+00  0.285E+00  0.285E+00
   8.151  0.223E+00  0.112E+00  0.112E+00
   8.153  0.175E-01  0.873E-02  0.873E-02
   8.155  0.120E+00  0.601E-01  0.601E-01
   8.157  0.505E+00  0.252E+00  0.252E+00
   8.159  0.514E+00  0.257E+00  0.257E+00
   8.161  0.582E+00  0.291E+00  0.291E+00
   8.163  0.237E+00  0.119E+00  0.119E+00
   8.165  0.208E-01  0.104E-01  0.104E-01
   8.167  0.157E+00  0.785E-01  0.785E-01
   8.169  0.984E+00  0.492E+00  0.492E+00
   8.171  0.196E+01  0.978E+00  0.978E+00
   8.173  0.102E+01  0.512E+00  0.512E+00
   8.175  0.140E+00  0.699E-01  0.699E-01
   8.177  0.372E-02  0.186E-02  0.186E-02
   8.179  0.513E-03  0.256E-03  0.256E-03
   8.181  0.265E-01  0.132E-01  0.132E-01
   8.183  0.217E+00  0.109E+00  0.109E+00
   8.185  0.420E+00  0.210E+00  0.210E+00
   8.187  0.257E+00  0.128E+00  0.128E+00
   8.189  0.452E-01  0.226E-01  0.226E-01
   8.191  0.794E-02  0.397E-02  0.397E-02
   8.193  0.220E-01  0.110E-01  0.110E-01
   8.195  0.137E+00  0.685E-01  0.685E-01
   8.197  0.118E+00  0.590E-01  0.590E-01
   8.199  0.567E-01  0.284E-01  0.284E-01
   8.201  0.483E+00  0.242E+00  0.242E+00
   8.203  0.811E+00  0.406E+00  0.406E+00
   8.205  0.471E+00  0.236E+00  0.236E+00
   8.207  0.457E+00  0.228E+00  0.228E+00
   8.209  0.561E+00  0.281E+00  0.281E+00
   8.211  0.131E+00  0.654E-01  0.654E-01
   8.213  0.630E-02  0.315E-02  0.315E-02
   8.215  0.123E+00  0.616E-01  0.616E-01
   8.217  0.971E+00  0.486E+00  0.486E+00
   8.219  0.104E+01  0.519E+00  0.519E+00
   8.221  0.161E+00  0.806E-01  0.806E-01
   8.223  0.121E+00  0.606E-01  0.606E-01
   8.225  0.194E+00  0.970E-01  0.970E-01
   8.227  0.248E+00  0.124E+00  0.124E+00
   8.229  0.247E+00  0.123E+00  0.123E+00
   8.231  0.430E-01  0.215E-01  0.215E-01
   8.233  0.197E+00  0.984E-01  0.984E-01
   8.235  0.103E+01  0.517E+00  0.517E+00
   8.237  0.742E+00  0.371E+00  0.371E+00
   8.239  0.199E+00  0.996E-01  0.996E-01
   8.241  0.631E+00  0.316E+00  0.316E+00
   8.243  0.807E+00  0.404E+00  0.404E+00
   8.245  0.524E+00  0.262E+00  0.262E+00
   8.247  0.209E+00  0.104E+00  0.104E+00
   8.249  0.117E+01  0.585E+00  0.585E+00
   8.251  0.144E+01  0.719E+00  0.719E+00
   8.253  0.381E+00  0.190E+00  0.190E+00
   8.255  0.290E+00  0.145E+00  0.145E+00
   8.257  0.805E-01  0.403E-01  0.403E-01
   8.259  0.309E-02  0.154E-02  0.154E-02
   8.261  0.160E-04  0.801E-05  0.801E-05
   8.263  0.113E-07  0.563E-08  0.563E-08
   8.265  0.107E-11  0.535E-12  0.535E-12
   8.267  0.137E-12  0.685E-13  0.685E-13
   8.269  0.276E-08  0.138E-08  0.138E-08
   8.271  0.764E-05  0.382E-05  0.382E-05
   8.273  0.291E-02  0.145E-02  0.145E-02
   8.275  0.152E+00  0.762E-01  0.762E-01
   8.277  0.110E+01  0.551E+00  0.551E+00
   8.279  0.110E+01  0.550E+00  0.550E+00
   8.281  0.156E+00  0.778E-01  0.778E-01
   8.283  0.967E-01  0.483E-01  0.483E-01
   8.285  0.284E+00  0.142E+00  0.142E+00
   8.287  0.116E+00  0.582E-01  0.582E-01
   8.289  0.646E-02  0.323E-02  0.323E-02
   8.291  0.486E-04  0.243E-04  0.243E-04
   8.293  0.494E-07  0.247E-07  0.247E-07
   8.295  0.191E-07  0.956E-08  0.956E-08
   8.297  0.347E-04  0.173E-04  0.173E-04
   8.299  0.851E-02  0.426E-02  0.426E-02
   8.301  0.283E+00  0.141E+00  0.141E+00
   8.303  0.127E+01  0.636E+00  0.636E+00
   8.305  0.807E+00  0.403E+00  0.403E+00
   8.307  0.326E+00  0.163E+00  0.163E+00
   8.309  0.103E+01  0.516E+00  0.516E+00
   8.311  0.122E+01  0.612E+00  0.612E+00
   8.313  0.267E+00  0.134E+00  0.134E+00
   8.315  0.119E-01  0.593E-02  0.593E-02
   8.317  0.678E-01  0.339E-01  0.339E-01
   8.319  0.260E+00  0.130E+00  0.130E+00
   8.321  0.134E+00  0.672E-01  0.672E-01
   8.323  0.949E-02  0.475E-02  0.475E-02
   8.325  0.138E-01  0.690E-02  0.690E-02
   8.327  0.374E+00  0.187E+00  0.187E+00
   8.329  0.138E+01  0.692E+00  0.692E+00
   8.331  0.693E+00  0.347E+00  0.347E+00
   8.333  0.483E-01  0.242E-01  0.242E-01
   8.335  0.367E-01  0.184E-01  0.184E-01
   8.337  0.568E+00  0.284E+00  0.284E+00
   8.339  0.211E+01  0.105E+01  0.105E+01
   8.341  0.170E+01  0.852E+00  0.852E+00
   8.343  0.293E+00  0.147E+00  0.147E+00
   8.345  0.878E-01  0.439E-01  0.439E-01
   8.347  0.145E-01  0.723E-02  0.723E-02
   8.349  0.339E-03  0.169E-03  0.169E-03
   8.351  0.707E-05  0.353E-05  0.353E-05
   8.353  0.151E-02  0.753E-03  0.753E-03
   8.355  0.513E-01  0.256E-01  0.256E-01
   8.357  0.236E+00  0.118E+00  0.118E+00
   8.359  0.151E+00  0.757E-01  0.757E-01
   8.361  0.170E+00  0.849E-01  0.849E-01
   8.363  0.931E+00  0.465E+00  0.465E+00
   8.365  0.112E+01  0.559E+00  0.559E+00
   8.367  0.376E+00  0.188E+00  0.188E+00
   8.369  0.132E+00  0.660E-01  0.660E-01
   8.371  0.194E-01  0.971E-02  0.971E-02
   8.373  0.421E-03  0.211E-03  0.211E-03
   8.375  0.396E-05  0.198E-05  0.198E-05
   8.377  0.601E-03  0.300E-03  0.300E-03
   8.379  0.184E-01  0.921E-02  0.921E-02
   8.381  0.117E+00  0.586E-01  0.586E-01
   8.383  0.639E+00  0.320E+00  0.320E+00
   8.385  0.163E+01  0.816E+00  0.816E+00
   8.387  0.188E+01  0.942E+00  0.942E+00
   8.389  0.835E+00  0.418E+00  0.418E+00
   8.391  0.644E-01  0.322E-01  0.322E-01
   8.393  0.699E-03  0.349E-03  0.349E-03
   8.395  0.941E-03  0.470E-03  0.470E-03
   8.397  0.566E-01  0.283E-01  0.283E-01
   8.399  0.658E+00  0.329E+00  0.329E+00
   8.401  0.155E+01  0.777E+00  0.777E+00
   8.403  0.691E+00  0.345E+00  0.345E+00
   8.405  0.534E+00  0.267E+00  0.267E+00
   8.407  0.147E+01  0.737E+00  0.737E+00
   8.409  0.640E+00  0.320E+00  0.320E+00
   8.411  0.660E+00  0.330E+00  0.330E+00
   8.413  0.144E+01  0.721E+00  0.721E+00
   8.415  0.466E+00  0.233E+00  0.233E+00
   8.417  0.217E+00  0.108E+00  0.108E+00
   8.419  0.137E+01  0.686E+00  0.686E+00
   8.421  0.229E+01  0.115E+01  0.115E+01
   8.423  0.207E+01  0.104E+01  0.104E+01
   8.425  0.777E+00  0.388E+00  0.388E+00
   8.427  0.717E+00  0.359E+00  0.359E+00
   8.429  0.455E+00  0.228E+00  0.228E+00
   8.431  0.183E+00  0.914E-01  0.914E-01
   8.433  0.589E+00  0.295E+00  0.295E+00
   8.435  0.705E+00  0.353E+00  0.353E+00
   8.437  0.730E+00  0.365E+00  0.365E+00
   8.439  0.136E+01  0.679E+00  0.679E+00
   8.441  0.522E+00  0.261E+00  0.261E+00
   8.443  0.677E+00  0.339E+00  0.339E+00
   8.445  0.636E+00  0.318E+00  0.318E+00
   8.447  0.238E+00  0.119E+00  0.119E+00
   8.449  0.329E-01  0.165E-01  0.165E-01
   8.451  0.303E-02  0.151E-02  0.151E-02
   8.453  0.102E+00  0.512E-01  0.512E-01
   8.455  0.623E+00  0.312E+00  0.312E+00
   8.457  0.513E+00  0.257E+00  0.257E+00
   8.459  0.652E-01  0.326E-01  0.326E-01
   8.461  0.385E-01  0.192E-01  0.192E-01
   8.463  0.244E-01  0.122E-01  0.122E-01
   8.465  0.568E-01  0.284E-01  0.284E-01
   8.467  0.795E+00  0.398E+00  0.398E+00
   8.469  0.185E+01  0.926E+00  0.926E+00
   8.471  0.107E+01  0.535E+00  0.535E+00
   8.473  0.178E+00  0.889E-01  0.889E-01
   8.475  0.533E-02  0.267E-02  0.267E-02
   8.477  0.632E-03  0.316E-03  0.316E-03
   8.479  0.605E-01  0.303E-01  0.303E-01
   8.481  0.814E+00  0.407E+00  0.407E+00
   8.483  0.148E+01  0.741E+00  0.741E+00
   8.485  0.446E+00  0.223E+00  0.223E+00
   8.487  0.591E+00  0.295E+00  0.295E+00
   8.489  0.558E+00  0.279E+00  0.279E+00
   8.491  0.729E-01  0.364E-01  0.364E-01
   8.493  0.471E-02  0.235E-02  0.235E-02
   8.495  0.713E-01  0.357E-01  0.357E-01
   8.497  0.222E+00  0.111E+00  0.111E+00
   8.499  0.186E+00  0.929E-01  0.929E-01
   8.501  0.802E-01  0.401E-01  0.401E-01
   8.503  0.343E-01  0.171E-01  0.171E-01
   8.505  0.874E-01  0.437E-01  0.437E-01
   8.507  0.565E+00  0.282E+00  0.282E+00
   8.509  0.570E+00  0.285E+00  0.285E+00
   8.511  0.779E-01  0.390E-01  0.390E-01
   8.513  0.144E-02  0.721E-03  0.721E-03
   8.515  0.361E-05  0.181E-05  0.181E-05
   8.517  0.122E-08  0.612E-09  0.612E-09
   8.519  0.389E-11  0.195E-11  0.195E-11
   8.521  0.433E-07  0.217E-07  0.217E-07
   8.523  0.664E-04  0.332E-04  0.332E-04
   8.525  0.139E-01  0.696E-02  0.696E-02
   8.527  0.408E+00  0.204E+00  0.204E+00
   8.529  0.181E+01  0.904E+00  0.904E+00
   8.531  0.145E+01  0.726E+00  0.726E+00
   8.533  0.251E+00  0.126E+00  0.126E+00
   8.535  0.265E+00  0.132E+00  0.132E+00
   8.537  0.109E+01  0.543E+00  0.543E+00
   8.539  0.112E+01  0.559E+00  0.559E+00
   8.541  0.751E+00  0.375E+00  0.375E+00
   8.543  0.935E+00  0.467E+00  0.467E+00
   8.545  0.204E+01  0.102E+01  0.102E+01
   8.547  0.121E+01  0.604E+00  0.604E+00
   8.549  0.370E+00  0.185E+00  0.185E+00
   8.551  0.640E+00  0.320E+00  0.320E+00
   8.553  0.147E+01  0.734E+00  0.734E+00
   8.555  0.225E+01  0.113E+01  0.113E+01
   8.557  0.127E+01  0.635E+00  0.635E+00
   8.559  0.318E+00  0.159E+00  0.159E+00
   8.561  0.131E+00  0.653E-01  0.653E-01
   8.563  0.166E+00  0.828E-01  0.828E-01
   8.565  0.370E+00  0.185E+00  0.185E+00
   8.567  0.246E+00  0.123E+00  0.123E+00
   8.569  0.102E+00  0.509E-01  0.509E-01
   8.571  0.192E+00  0.962E-01  0.962E-01
   8.573  0.298E+00  0.149E+00  0.149E+00
   8.575  0.292E+00  0.146E+00  0.146E+00
   8.577  0.118E+00  0.588E-01  0.588E-01
   8.579  0.877E-01  0.439E-01  0.439E-01
   8.581  0.124E+00  0.618E-01  0.618E-01
   8.583  0.753E+00  0.377E+00  0.377E+00
   8.585  0.892E+00  0.446E+00  0.446E+00
   8.587  0.234E+00  0.117E+00  0.117E+00
   8.589  0.148E-01  0.742E-02  0.742E-02
   8.591  0.168E-01  0.842E-02  0.842E-02
   8.593  0.807E-01  0.403E-01  0.403E-01
   8.595  0.170E+00  0.851E-01  0.851E-01
   8.597  0.280E+00  0.140E+00  0.140E+00
   8.599  0.141E+00  0.705E-01  0.705E-01
   8.601  0.581E-01  0.291E-01  0.291E-01
   8.603  0.510E-01  0.255E-01  0.255E-01
   8.605  0.351E-01  0.176E-01  0.176E-01
   8.607  0.600E+00  0.300E+00  0.300E+00
   8.609  0.190E+01  0.948E+00  0.948E+00
   8.611  0.139E+01  0.697E+00  0.697E+00
   8.613  0.144E+01  0.722E+00  0.722E+00
   8.615  0.244E+01  0.122E+01  0.122E+01
   8.617  0.132E+01  0.662E+00  0.662E+00
   8.619  0.108E+01  0.538E+00  0.538E+00
   8.621  0.177E+01  0.886E+00  0.886E+00
   8.623  0.774E+00  0.387E+00  0.387E+00
   8.625  0.306E+00  0.153E+00  0.153E+00
   8.627  0.217E+00  0.108E+00  0.108E+00
   8.629  0.205E+00  0.103E+00  0.103E+00
   8.631  0.146E+00  0.730E-01  0.730E-01
   8.633  0.481E-01  0.241E-01  0.241E-01
   8.635  0.329E-01  0.164E-01  0.164E-01
   8.637  0.156E+00  0.782E-01  0.782E-01
   8.639  0.234E+00  0.117E+00  0.117E+00
   8.641  0.179E+00  0.894E-01  0.894E-01
   8.643  0.238E+00  0.119E+00  0.119E+00
   8.645  0.426E+00  0.213E+00  0.213E+00
   8.647  0.892E+00  0.446E+00  0.446E+00
   8.649  0.444E+00  0.222E+00  0.222E+00
   8.651  0.313E-01  0.156E-01  0.156E-01
   8.653  0.266E-02  0.133E-02  0.133E-02
   8.655  0.529E-01  0.264E-01  0.264E-01
   8.657  0.259E+00  0.129E+00  0.129E+00
   8.659  0.240E+00  0.120E+00  0.120E+00
   8.661  0.174E+00  0.872E-01  0.872E-01
   8.663  0.122E+00  0.608E-01  0.608E-01
   8.665  0.144E-01  0.720E-02  0.720E-02
   8.667  0.195E-01  0.973E-02  0.973E-02
   8.669  0.107E+00  0.533E-01  0.533E-01
   8.671  0.153E+00  0.763E-01  0.763E-01
   8.673  0.678E+00  0.339E+00  0.339E+00
   8.675  0.302E+01  0.151E+01  0.151E+01
   8.677  0.338E+01  0.169E+01  0.169E+01
   8.679  0.222E+01  0.111E+01  0.111E+01
   8.681  0.978E+00  0.489E+00  0.489E+00
   8.683  0.937E+00  0.468E+00  0.468E+00
   8.685  0.356E+00  0.178E+00  0.178E+00
   8.687  0.256E-01  0.128E-01  0.128E-01
   8.689  0.225E-02  0.113E-02  0.113E-02
   8.691  0.791E-02  0.395E-02  0.395E-02
   8.693  0.124E-01  0.620E-02  0.620E-02
   8.695  0.812E-01  0.406E-01  0.406E-01
   8.697  0.149E+00  0.747E-01  0.747E-01
   8.699  0.144E+00  0.720E-01  0.720E-01
   8.701  0.103E+00  0.514E-01  0.514E-01
   8.703  0.178E+00  0.889E-01  0.889E-01
   8.705  0.774E-01  0.387E-01  0.387E-01
   8.707  0.477E-02  0.239E-02  0.239E-02
   8.709  0.894E-03  0.447E-03  0.447E-03
   8.711  0.182E-02  0.910E-03  0.910E-03
   8.713  0.256E-01  0.128E-01  0.128E-01
   8.715  0.128E+00  0.638E-01  0.638E-01
   8.717  0.173E+00  0.863E-01  0.863E-01
   8.719  0.304E+00  0.152E+00  0.152E+00
   8.721  0.881E+00  0.440E+00  0.440E+00
   8.723  0.276E+01  0.138E+01  0.138E+01
   8.725  0.550E+01  0.275E+01  0.275E+01
   8.727  0.196E+01  0.981E+00  0.981E+00
   8.729  0.119E+00  0.595E-01  0.595E-01
   8.731  0.278E-01  0.139E-01  0.139E-01
   8.733  0.102E+00  0.509E-01  0.509E-01
   8.735  0.529E-01  0.264E-01  0.264E-01
   8.737  0.106E-01  0.529E-02  0.529E-02
   8.739  0.653E-01  0.327E-01  0.327E-01
   8.741  0.839E-01  0.420E-01  0.420E-01
   8.743  0.176E-01  0.882E-02  0.882E-02
   8.745  0.475E-01  0.238E-01  0.238E-01
   8.747  0.102E+00  0.512E-01  0.512E-01
   8.749  0.990E-01  0.495E-01  0.495E-01
   8.751  0.243E+00  0.122E+00  0.122E+00
   8.753  0.101E+01  0.507E+00  0.507E+00
   8.755  0.496E+01  0.248E+01  0.248E+01
   8.757  0.390E+01  0.195E+01  0.195E+01
   8.759  0.518E+00  0.259E+00  0.259E+00
   8.761  0.589E+00  0.294E+00  0.294E+00
   8.763  0.728E+00  0.364E+00  0.364E+00
   8.765  0.236E+01  0.118E+01  0.118E+01
   8.767  0.362E+01  0.181E+01  0.181E+01
   8.769  0.790E+00  0.395E+00  0.395E+00
   8.771  0.395E-01  0.197E-01  0.197E-01
   8.773  0.780E-01  0.390E-01  0.390E-01
   8.775  0.977E-01  0.488E-01  0.488E-01
   8.777  0.177E+00  0.886E-01  0.886E-01
   8.779  0.827E-01  0.414E-01  0.414E-01
   8.781  0.534E-02  0.267E-02  0.267E-02
   8.783  0.506E-04  0.253E-04  0.253E-04
   8.785  0.733E-03  0.367E-03  0.367E-03
   8.787  0.192E-01  0.959E-02  0.959E-02
   8.789  0.679E-01  0.339E-01  0.339E-01
   8.791  0.327E-01  0.163E-01  0.163E-01
   8.793  0.105E-01  0.526E-02  0.526E-02
   8.795  0.565E-01  0.282E-01  0.282E-01
   8.797  0.512E-01  0.256E-01  0.256E-01
   8.799  0.636E-02  0.318E-02  0.318E-02
   8.801  0.127E-01  0.633E-02  0.633E-02
   8.803  0.287E+00  0.143E+00  0.143E+00
   8.805  0.888E+00  0.444E+00  0.444E+00
   8.807  0.373E+00  0.186E+00  0.186E+00
   8.809  0.212E-01  0.106E-01  0.106E-01
   8.811  0.519E-03  0.259E-03  0.259E-03
   8.813  0.116E-01  0.582E-02  0.582E-02
   8.815  0.520E-01  0.260E-01  0.260E-01
   8.817  0.407E-01  0.204E-01  0.204E-01
   8.819  0.683E-01  0.342E-01  0.342E-01
   8.821  0.108E+00  0.540E-01  0.540E-01
   8.823  0.463E-01  0.231E-01  0.231E-01
   8.825  0.349E-02  0.175E-02  0.175E-02
   8.827  0.378E-04  0.189E-04  0.189E-04
   8.829  0.377E-04  0.188E-04  0.188E-04
   8.831  0.463E-02  0.232E-02  0.232E-02
   8.833  0.773E-01  0.386E-01  0.386E-01
   8.835  0.174E+00  0.872E-01  0.872E-01
   8.837  0.533E-01  0.267E-01  0.267E-01
   8.839  0.377E-02  0.188E-02  0.188E-02
   8.841  0.227E-01  0.113E-01  0.113E-01
   8.843  0.596E-01  0.298E-01  0.298E-01
   8.845  0.528E-01  0.264E-01  0.264E-01
   8.847  0.246E-01  0.123E-01  0.123E-01
   8.849  0.237E+00  0.119E+00  0.119E+00
   8.851  0.648E+00  0.324E+00  0.324E+00
   8.853  0.240E+00  0.120E+00  0.120E+00
   8.855  0.120E-01  0.601E-02  0.601E-02
   8.857  0.815E-04  0.407E-04  0.407E-04
   8.859  0.684E-06  0.342E-06  0.342E-06
   8.861  0.269E-03  0.135E-03  0.135E-03
   8.863  0.161E-01  0.805E-02  0.805E-02
   8.865  0.130E+00  0.652E-01  0.652E-01
   8.867  0.146E+00  0.728E-01  0.728E-01
   8.869  0.530E-01  0.265E-01  0.265E-01
   8.871  0.578E-01  0.289E-01  0.289E-01
   8.873  0.151E-01  0.755E-02  0.755E-02
   8.875  0.575E-03  0.288E-03  0.288E-03
   8.877  0.313E-05  0.156E-05  0.156E-05
   8.879  0.239E-08  0.119E-08  0.119E-08
   8.881  0.152E-10  0.759E-11  0.759E-11
   8.883  0.590E-07  0.295E-07  0.295E-07
   8.885  0.315E-04  0.158E-04  0.158E-04
   8.887  0.228E-02  0.114E-02  0.114E-02
   8.889  0.224E-01  0.112E-01  0.112E-01
   8.891  0.296E-01  0.148E-01  0.148E-01
   8.893  0.550E-02  0.275E-02  0.275E-02
   8.895  0.127E-01  0.637E-02  0.637E-02
   8.897  0.223E+00  0.112E+00  0.112E+00
   8.899  0.803E+00  0.402E+00  0.402E+00
   8.901  0.485E+00  0.243E+00  0.243E+00
   8.903  0.581E-01  0.291E-01  0.291E-01
   8.905  0.190E-02  0.951E-03  0.951E-03
   8.907  0.137E-04  0.685E-05  0.685E-05
   8.909  0.154E-07  0.769E-08  0.769E-08
   8.911  0.240E-11  0.120E-11  0.120E-11
   8.913  0.859E-15  0.430E-15  0.430E-15
   8.915  0.182E-10  0.912E-11  0.912E-11
   8.917  0.559E-07  0.280E-07  0.280E-07
   8.919  0.236E-04  0.118E-04  0.118E-04
   8.921  0.141E-02  0.704E-03  0.704E-03
   8.923  0.130E-01  0.648E-02  0.648E-02
   8.925  0.212E-01  0.106E-01  0.106E-01
   8.927  0.664E-02  0.332E-02  0.332E-02
   8.929  0.102E-02  0.510E-03  0.510E-03
   8.931  0.274E-01  0.137E-01  0.137E-01
   8.933  0.154E+00  0.768E-01  0.768E-01
   8.935  0.116E+00  0.581E-01  0.581E-01
   8.937  0.119E-01  0.596E-02  0.596E-02
   8.939  0.165E-03  0.827E-04  0.827E-04
   8.941  0.311E-06  0.155E-06  0.155E-06
   8.943  0.433E-06  0.217E-06  0.217E-06
   8.945  0.232E-03  0.116E-03  0.116E-03
   8.947  0.216E-01  0.108E-01  0.108E-01
   8.949  0.303E+00  0.151E+00  0.151E+00
   8.951  0.595E+00  0.297E+00  0.297E+00
   8.953  0.160E+00  0.800E-01  0.800E-01
   8.955  0.584E-02  0.292E-02  0.292E-02
   8.957  0.289E-04  0.145E-04  0.145E-04
   8.959  0.194E-07  0.969E-08  0.969E-08
   8.961  0.185E-09  0.923E-10  0.923E-10
   8.963  0.599E-06  0.299E-06  0.299E-06
   8.965  0.265E-03  0.133E-03  0.133E-03
   8.967  0.159E-01  0.796E-02  0.796E-02
   8.969  0.129E+00  0.647E-01  0.647E-01
   8.971  0.144E+00  0.719E-01  0.719E-01
   8.973  0.261E-01  0.131E-01  0.131E-01
   8.975  0.424E-02  0.212E-02  0.212E-02
   8.977  0.119E-01  0.597E-02  0.597E-02
   8.979  0.173E-01  0.867E-02  0.867E-02
   8.981  0.358E-02  0.179E-02  0.179E-02
   8.983  0.445E-02  0.222E-02  0.222E-02
   8.985  0.268E-01  0.134E-01  0.134E-01
   8.987  0.224E-01  0.112E-01  0.112E-01
   8.989  0.258E-02  0.129E-02  0.129E-02
   8.991  0.808E-03  0.404E-03  0.404E-03
   8.993  0.178E-02  0.888E-03  0.888E-03
   8.995  0.668E-03  0.334E-03  0.334E-03
   8.997  0.403E-04  0.201E-04  0.201E-04
   8.999  0.266E-03  0.133E-03  0.133E-03
   9.001  0.248E-01  0.124E-01  0.124E-01
   9.003  0.314E+00  0.157E+00  0.157E+00
   9.005  0.551E+00  0.276E+00  0.276E+00
   9.007  0.248E+00  0.124E+00  0.124E+00
   9.009  0.151E+00  0.754E-01  0.754E-01
   9.011  0.236E-01  0.118E-01  0.118E-01
   9.013  0.514E-03  0.257E-03  0.257E-03
   9.015  0.750E-05  0.375E-05  0.375E-05
   9.017  0.236E-04  0.118E-04  0.118E-04
   9.019  0.127E-04  0.634E-05  0.634E-05
   9.021  0.924E-06  0.462E-06  0.462E-06
   9.023  0.915E-08  0.458E-08  0.458E-08
   9.025  0.123E-10  0.615E-11  0.615E-11
   9.027  0.225E-14  0.112E-14  0.112E-14
   9.029  0.558E-19  0.279E-19  0.279E-19
   9.031  0.725E-22  0.363E-22  0.363E-22
   9.033  0.748E-22  0.374E-22  0.374E-22
   9.035  0.109E-18  0.547E-19  0.547E-19
   9.037  0.169E-13  0.845E-14  0.845E-14
   9.039  0.353E-09  0.176E-09  0.176E-09
   9.041  0.998E-06  0.499E-06  0.499E-06
   9.043  0.382E-03  0.191E-03  0.191E-03
   9.045  0.198E-01  0.989E-02  0.989E-02
   9.047  0.139E+00  0.693E-01  0.693E-01
   9.049  0.131E+00  0.657E-01  0.657E-01
   9.051  0.169E-01  0.844E-02  0.844E-02
   9.053  0.293E-03  0.147E-03  0.147E-03
   9.055  0.589E-04  0.294E-04  0.294E-04
   9.057  0.896E-02  0.448E-02  0.448E-02
   9.059  0.187E+00  0.933E-01  0.933E-01
   9.061  0.526E+00  0.263E+00  0.263E+00
   9.063  0.201E+00  0.100E+00  0.100E+00
   9.065  0.109E-01  0.544E-02  0.544E-02
   9.067  0.518E-02  0.259E-02  0.259E-02
   9.069  0.680E-02  0.340E-02  0.340E-02
   9.071  0.172E-02  0.858E-03  0.858E-03
   9.073  0.734E-02  0.367E-02  0.367E-02
   9.075  0.147E-01  0.734E-02  0.734E-02
   9.077  0.400E-02  0.200E-02  0.200E-02
   9.079  0.147E-03  0.735E-04  0.735E-04
   9.081  0.737E-06  0.368E-06  0.368E-06
   9.083  0.634E-05  0.317E-05  0.317E-05
   9.085  0.139E-02  0.696E-03  0.696E-03
   9.087  0.414E-01  0.207E-01  0.207E-01
   9.089  0.167E+00  0.833E-01  0.833E-01
   9.091  0.907E-01  0.453E-01  0.453E-01
   9.093  0.668E-02  0.334E-02  0.334E-02
   9.095  0.667E-04  0.333E-04  0.333E-04
   9.097  0.900E-07  0.450E-07  0.450E-07
   9.099  0.164E-10  0.822E-11  0.822E-11
   9.101  0.406E-15  0.203E-15  0.203E-15
   9.103  0.149E-21  0.747E-22  0.747E-22
   9.105  0.227E-22  0.113E-22  0.113E-22
   9.107  0.506E-24  0.253E-24  0.253E-24
   9.109  0.305E-13  0.152E-13  0.152E-13
   9.111  0.688E-09  0.344E-09  0.344E-09
   9.113  0.210E-05  0.105E-05  0.105E-05
   9.115  0.868E-03  0.434E-03  0.434E-03
   9.117  0.486E-01  0.243E-01  0.243E-01
   9.119  0.368E+00  0.184E+00  0.184E+00
   9.121  0.377E+00  0.188E+00  0.188E+00
   9.123  0.523E-01  0.261E-01  0.261E-01
   9.125  0.981E-03  0.490E-03  0.490E-03
   9.127  0.102E-03  0.510E-04  0.510E-04
   9.129  0.862E-02  0.431E-02  0.431E-02
   9.131  0.101E+00  0.506E-01  0.506E-01
   9.133  0.161E+00  0.804E-01  0.804E-01
   9.135  0.346E-01  0.173E-01  0.173E-01
   9.137  0.101E-02  0.503E-03  0.503E-03
   9.139  0.396E-05  0.198E-05  0.198E-05
   9.141  0.211E-08  0.106E-08  0.106E-08
   9.143  0.152E-12  0.761E-13  0.761E-13
   9.145  0.149E-17  0.743E-18  0.743E-18
   9.147  0.123E-15  0.613E-16  0.613E-16
   9.149  0.255E-11  0.128E-11  0.128E-11
   9.151  0.720E-08  0.360E-08  0.360E-08
   9.153  0.274E-05  0.137E-05  0.137E-05
   9.155  0.142E-03  0.708E-04  0.708E-04
   9.157  0.990E-03  0.495E-03  0.495E-03
   9.159  0.936E-03  0.468E-03  0.468E-03
   9.161  0.121E-03  0.603E-04  0.603E-04
   9.163  0.113E-03  0.563E-04  0.563E-04
   9.165  0.174E-02  0.870E-03  0.870E-03
   9.167  0.371E-02  0.185E-02  0.185E-02
   9.169  0.107E-02  0.535E-03  0.535E-03
   9.171  0.587E-04  0.294E-04  0.294E-04
   9.173  0.272E-02  0.136E-02  0.136E-02
   9.175  0.589E-01  0.294E-01  0.294E-01
   9.177  0.180E+00  0.900E-01  0.900E-01
   9.179  0.220E+00  0.110E+00  0.110E+00
   9.181  0.425E+00  0.212E+00  0.212E+00
   9.183  0.159E+00  0.794E-01  0.794E-01
   9.185  0.810E-02  0.405E-02  0.405E-02
   9.187  0.559E-04  0.279E-04  0.279E-04
   9.189  0.522E-07  0.261E-07  0.261E-07
   9.191  0.660E-11  0.330E-11  0.330E-11
   9.193  0.113E-15  0.565E-16  0.565E-16
   9.195  0.179E-25  0.895E-26  0.895E-26
   9.197  0.129E-23  0.644E-24  0.644E-24
   9.199  0.125E-22  0.627E-23  0.627E-23
   9.201  0.166E-22  0.828E-23  0.828E-23
   9.203  0.541E-23  0.270E-23  0.270E-23
   9.205  0.368E-22  0.184E-22  0.184E-22
   9.207  0.742E-22  0.371E-22  0.371E-22
   9.209  0.203E-22  0.101E-22  0.101E-22
   9.211  0.213E-16  0.106E-16  0.106E-16
   9.213  0.142E-11  0.708E-12  0.708E-12
   9.215  0.128E-07  0.638E-08  0.638E-08
   9.217  0.155E-04  0.777E-05  0.777E-05
   9.219  0.256E-02  0.128E-02  0.128E-02
   9.221  0.572E-01  0.286E-01  0.286E-01
   9.223  0.173E+00  0.863E-01  0.863E-01
   9.225  0.706E-01  0.353E-01  0.353E-01
   9.227  0.390E-02  0.195E-02  0.195E-02
   9.229  0.292E-04  0.146E-04  0.146E-04
   9.231  0.296E-07  0.148E-07  0.148E-07
   9.233  0.118E-10  0.588E-11  0.588E-11
   9.235  0.571E-07  0.285E-07  0.285E-07
   9.237  0.572E-04  0.286E-04  0.286E-04
   9.239  0.777E-02  0.389E-02  0.389E-02
   9.241  0.143E+00  0.714E-01  0.714E-01
   9.243  0.355E+00  0.178E+00  0.178E+00
   9.245  0.120E+00  0.598E-01  0.598E-01
   9.247  0.546E-02  0.273E-02  0.273E-02
   9.249  0.339E-04  0.170E-04  0.170E-04
   9.251  0.289E-07  0.145E-07  0.145E-07
   9.253  0.113E-08  0.563E-09  0.563E-09
   9.255  0.303E-06  0.151E-06  0.151E-06
   9.257  0.111E-04  0.553E-05  0.553E-05
   9.259  0.547E-04  0.274E-04  0.274E-04
   9.261  0.366E-04  0.183E-04  0.183E-04
   9.263  0.356E-05  0.178E-05  0.178E-05
   9.265  0.140E-03  0.699E-04  0.699E-04
   9.267  0.107E-01  0.535E-02  0.535E-02
   9.269  0.111E+00  0.555E-01  0.555E-01
   9.271  0.156E+00  0.780E-01  0.780E-01
   9.273  0.296E-01  0.148E-01  0.148E-01
   9.275  0.762E-03  0.381E-03  0.381E-03
   9.277  0.265E-05  0.133E-05  0.133E-05
   9.279  0.125E-08  0.625E-09  0.625E-09
   9.281  0.796E-13  0.398E-13  0.398E-13
   9.283  0.687E-18  0.343E-18  0.343E-18
   9.285  0.000E+00  0.000E+00  0.000E+00
   9.287  0.379E-35  0.189E-35  0.189E-35
   9.289  0.127E-30  0.635E-31  0.635E-31
   9.291  0.659E-17  0.330E-17  0.330E-17
   9.293  0.575E-12  0.288E-12  0.288E-12
   9.295  0.680E-08  0.340E-08  0.340E-08
   9.297  0.109E-04  0.543E-05  0.543E-05
   9.299  0.235E-02  0.117E-02  0.117E-02
   9.301  0.688E-01  0.344E-01  0.344E-01
   9.303  0.272E+00  0.136E+00  0.136E+00
   9.305  0.146E+00  0.730E-01  0.730E-01
   9.307  0.106E-01  0.530E-02  0.530E-02
   9.309  0.104E-03  0.521E-04  0.521E-04
   9.311  0.323E-06  0.161E-06  0.161E-06
   9.313  0.113E-03  0.566E-04  0.566E-04
   9.315  0.941E-02  0.471E-02  0.471E-02
   9.317  0.106E+00  0.530E-01  0.530E-01
   9.319  0.163E+00  0.815E-01  0.815E-01
   9.321  0.371E-01  0.185E-01  0.185E-01
   9.323  0.210E-02  0.105E-02  0.105E-02
   9.325  0.515E-04  0.257E-04  0.257E-04
   9.327  0.268E-06  0.134E-06  0.134E-06
   9.329  0.199E-09  0.997E-10  0.997E-10
   9.331  0.202E-13  0.101E-13  0.101E-13
   9.333  0.278E-18  0.139E-18  0.139E-18
   9.335  0.760E-20  0.380E-20  0.380E-20
   9.337  0.107E-14  0.534E-15  0.534E-15
   9.339  0.209E-10  0.105E-10  0.105E-10
   9.341  0.554E-07  0.277E-07  0.277E-07
   9.343  0.199E-04  0.994E-05  0.994E-05
   9.345  0.966E-03  0.483E-03  0.483E-03
   9.347  0.635E-02  0.317E-02  0.317E-02
   9.349  0.565E-02  0.282E-02  0.282E-02
   9.351  0.680E-03  0.340E-03  0.340E-03
   9.353  0.146E-03  0.729E-04  0.729E-04
   9.355  0.111E-01  0.556E-02  0.556E-02
   9.357  0.124E+00  0.620E-01  0.620E-01
   9.359  0.187E+00  0.936E-01  0.936E-01
   9.361  0.383E-01  0.192E-01  0.192E-01
   9.363  0.698E-02  0.349E-02  0.349E-02
   9.365  0.871E-01  0.435E-01  0.435E-01
   9.367  0.173E+00  0.866E-01  0.866E-01
   9.369  0.466E-01  0.233E-01  0.233E-01
   9.371  0.170E-02  0.850E-03  0.850E-03
   9.373  0.838E-05  0.419E-05  0.419E-05
   9.375  0.182E-07  0.912E-08  0.912E-08
   9.377  0.691E-05  0.346E-05  0.346E-05
   9.379  0.511E-03  0.256E-03  0.256E-03
   9.381  0.512E-02  0.256E-02  0.256E-02
   9.383  0.694E-02  0.347E-02  0.347E-02
   9.385  0.127E-02  0.636E-03  0.636E-03
   9.387  0.316E-04  0.158E-04  0.158E-04
   9.389  0.106E-06  0.530E-07  0.530E-07
   9.391  0.482E-10  0.241E-10  0.241E-10
   9.393  0.378E-11  0.189E-11  0.189E-11
   9.395  0.262E-07  0.131E-07  0.131E-07
   9.397  0.247E-04  0.123E-04  0.123E-04
   9.399  0.314E-02  0.157E-02  0.157E-02
   9.401  0.541E-01  0.270E-01  0.270E-01
   9.403  0.126E+00  0.630E-01  0.630E-01
   9.405  0.397E-01  0.199E-01  0.199E-01
   9.407  0.170E-02  0.849E-03  0.849E-03
   9.409  0.612E-03  0.306E-03  0.306E-03
   9.411  0.263E-01  0.131E-01  0.131E-01
   9.413  0.155E+00  0.775E-01  0.775E-01
   9.415  0.124E+00  0.620E-01  0.620E-01
   9.417  0.167E-01  0.834E-02  0.834E-02
   9.419  0.242E-01  0.121E-01  0.121E-01
   9.421  0.243E-01  0.122E-01  0.122E-01
   9.423  0.816E-02  0.408E-02  0.408E-02
   9.425  0.606E-02  0.303E-02  0.303E-02
   9.427  0.989E-03  0.495E-03  0.495E-03
   9.429  0.115E-02  0.574E-03  0.574E-03
   9.431  0.224E-01  0.112E-01  0.112E-01
   9.433  0.602E-01  0.301E-01  0.301E-01
   9.435  0.219E-01  0.110E-01  0.110E-01
   9.437  0.108E-02  0.540E-03  0.540E-03
   9.439  0.721E-05  0.360E-05  0.360E-05
   9.441  0.284E-06  0.142E-06  0.142E-06
   9.443  0.439E-04  0.219E-04  0.219E-04
   9.445  0.110E-02  0.548E-03  0.548E-03
   9.447  0.733E-02  0.367E-02  0.367E-02
   9.449  0.165E-01  0.823E-02  0.823E-02
   9.451  0.691E-02  0.345E-02  0.345E-02
   9.453  0.835E-02  0.418E-02  0.418E-02
   9.455  0.103E+00  0.516E-01  0.516E-01
   9.457  0.206E+00  0.103E+00  0.103E+00
   9.459  0.116E+00  0.578E-01  0.578E-01
   9.461  0.316E-01  0.158E-01  0.158E-01
   9.463  0.126E-01  0.630E-02  0.630E-02
   9.465  0.442E-01  0.221E-01  0.221E-01
   9.467  0.450E-01  0.225E-01  0.225E-01
   9.469  0.436E-01  0.218E-01  0.218E-01
   9.471  0.108E-01  0.541E-02  0.541E-02
   9.473  0.377E-03  0.188E-03  0.188E-03
   9.475  0.186E-05  0.928E-06  0.928E-06
   9.477  0.497E-04  0.248E-04  0.248E-04
   9.479  0.415E-02  0.207E-02  0.207E-02
   9.481  0.468E-01  0.234E-01  0.234E-01
   9.483  0.719E-01  0.360E-01  0.360E-01
   9.485  0.325E-01  0.162E-01  0.162E-01
   9.487  0.134E+00  0.668E-01  0.668E-01
   9.489  0.136E+00  0.679E-01  0.679E-01
   9.491  0.207E-01  0.103E-01  0.103E-01
   9.493  0.402E-01  0.201E-01  0.201E-01
   9.495  0.111E+00  0.554E-01  0.554E-01
   9.497  0.570E-01  0.285E-01  0.285E-01
   9.499  0.115E+00  0.576E-01  0.576E-01
   9.501  0.112E+00  0.559E-01  0.559E-01
   9.503  0.149E-01  0.747E-02  0.747E-02
   9.505  0.270E-03  0.135E-03  0.135E-03
   9.507  0.662E-06  0.331E-06  0.331E-06
   9.509  0.219E-09  0.110E-09  0.110E-09
   9.511  0.983E-14  0.492E-14  0.492E-14
   9.513  0.334E-26  0.167E-26  0.167E-26
   9.515  0.213E-29  0.107E-29  0.107E-29
   9.517  0.184E-33  0.920E-34  0.920E-34
   9.519  0.156E-34  0.778E-35  0.778E-35
   9.521  0.220E-30  0.110E-30  0.110E-30
   9.523  0.420E-27  0.210E-27  0.210E-27
   9.525  0.109E-24  0.544E-25  0.544E-25
   9.527  0.381E-23  0.190E-23  0.190E-23
   9.529  0.180E-22  0.902E-23  0.902E-23
   9.531  0.116E-22  0.579E-23  0.579E-23
   9.533  0.100E-23  0.502E-24  0.502E-24
   9.535  0.118E-25  0.590E-26  0.590E-26
   9.537  0.188E-28  0.938E-29  0.938E-29
   9.539  0.404E-32  0.202E-32  0.202E-32
   9.541  0.184E-30  0.919E-31  0.919E-31
   9.543  0.787E-27  0.394E-27  0.394E-27
   9.545  0.456E-24  0.228E-24  0.228E-24
   9.547  0.358E-22  0.179E-22  0.179E-22
   9.549  0.380E-21  0.190E-21  0.190E-21
   9.551  0.547E-21  0.273E-21  0.273E-21
   9.553  0.106E-21  0.532E-22  0.532E-22
   9.555  0.433E-23  0.217E-23  0.217E-23
   9.557  0.233E-23  0.116E-23  0.116E-23
   9.559  0.475E-24  0.237E-24  0.237E-24
   9.561  0.131E-25  0.657E-26  0.657E-26
   9.563  0.493E-28  0.246E-28  0.246E-28
   9.565  0.250E-31  0.125E-31  0.125E-31
   9.567  0.172E-35  0.859E-36  0.859E-36
   9.569  0.160E-40  0.798E-41  0.798E-41
   9.571  0.000E+00  0.000E+00  0.000E+00
   9.573  0.000E+00  0.000E+00  0.000E+00
   9.575  0.771E-38  0.386E-38  0.386E-38
   9.577  0.363E-33  0.182E-33  0.182E-33
   9.579  0.232E-29  0.116E-29  0.116E-29
   9.581  0.200E-26  0.100E-26  0.100E-26
   9.583  0.234E-24  0.117E-24  0.117E-24
   9.585  0.370E-23  0.185E-23  0.185E-23
   9.587  0.791E-23  0.395E-23  0.395E-23
   9.589  0.229E-23  0.114E-23  0.114E-23
   9.591  0.157E-24  0.786E-25  0.786E-25
   9.593  0.966E-23  0.483E-23  0.483E-23
   9.595  0.187E-21  0.934E-22  0.934E-22
   9.597  0.489E-21  0.245E-21  0.245E-21
   9.599  0.173E-21  0.867E-22  0.867E-22
   9.601  0.832E-23  0.416E-23  0.416E-23
   9.603  0.540E-25  0.270E-25  0.270E-25
   9.605  0.474E-28  0.237E-28  0.237E-28
   9.607  0.563E-32  0.282E-32  0.282E-32
   9.609  0.907E-37  0.453E-37  0.453E-37
   9.611  0.000E+00  0.000E+00  0.000E+00
   9.613  0.689E-39  0.345E-39  0.345E-39
   9.615  0.743E-34  0.372E-34  0.372E-34
   9.617  0.108E-29  0.542E-30  0.542E-30
   9.619  0.214E-26  0.107E-26  0.107E-26
   9.621  0.572E-24  0.286E-24  0.286E-24
   9.623  0.207E-22  0.103E-22  0.103E-22
   9.625  0.101E-21  0.507E-22  0.507E-22
   9.627  0.671E-22  0.336E-22  0.336E-22
   9.629  0.602E-23  0.301E-23  0.301E-23
   9.631  0.730E-25  0.365E-25  0.365E-25
   9.633  0.120E-27  0.599E-28  0.599E-28
   9.635  0.266E-31  0.133E-31  0.133E-31
   9.637  0.801E-36  0.401E-36  0.401E-36
   9.639  0.275E-39  0.138E-39  0.138E-39
   9.641  0.220E-17  0.110E-17  0.110E-17
   9.643  0.114E-12  0.568E-13  0.568E-13
   9.645  0.792E-09  0.396E-09  0.396E-09
   9.647  0.748E-06  0.374E-06  0.374E-06
   9.649  0.955E-04  0.478E-04  0.478E-04
   9.651  0.165E-02  0.826E-03  0.826E-03
   9.653  0.390E-02  0.195E-02  0.195E-02
   9.655  0.135E-02  0.673E-03  0.673E-03
   9.657  0.106E-03  0.531E-04  0.531E-04
   9.659  0.351E-05  0.176E-05  0.176E-05
   9.661  0.261E-07  0.131E-07  0.131E-07
   9.663  0.283E-10  0.141E-10  0.141E-10
   9.665  0.122E-10  0.608E-11  0.608E-11
   9.667  0.287E-07  0.144E-07  0.144E-07
   9.669  0.922E-05  0.461E-05  0.461E-05
   9.671  0.420E-03  0.210E-03  0.210E-03
   9.673  0.386E-02  0.193E-02  0.193E-02
   9.675  0.154E-01  0.772E-02  0.772E-02
   9.677  0.165E-01  0.823E-02  0.823E-02
   9.679  0.264E-02  0.132E-02  0.132E-02
   9.681  0.578E-04  0.289E-04  0.289E-04
   9.683  0.171E-06  0.857E-07  0.857E-07
   9.685  0.688E-10  0.344E-10  0.344E-10
   9.687  0.374E-14  0.187E-14  0.187E-14
   9.689  0.369E-18  0.184E-18  0.184E-18
   9.691  0.249E-13  0.125E-13  0.125E-13
   9.693  0.247E-09  0.123E-09  0.123E-09
   9.695  0.331E-06  0.165E-06  0.165E-06
   9.697  0.600E-04  0.300E-04  0.300E-04
   9.699  0.147E-02  0.736E-03  0.736E-03
   9.701  0.489E-02  0.245E-02  0.245E-02
   9.703  0.220E-02  0.110E-02  0.110E-02
   9.705  0.134E-03  0.669E-04  0.669E-04
   9.707  0.110E-05  0.550E-06  0.550E-06
   9.709  0.123E-08  0.613E-09  0.613E-09
   9.711  0.185E-12  0.924E-13  0.924E-13
   9.713  0.714E-17  0.357E-17  0.357E-17
   9.715  0.225E-12  0.112E-12  0.112E-12
   9.717  0.203E-08  0.101E-08  0.101E-08
   9.719  0.248E-05  0.124E-05  0.124E-05
   9.721  0.409E-03  0.205E-03  0.205E-03
   9.723  0.916E-02  0.458E-02  0.458E-02
   9.725  0.277E-01  0.139E-01  0.139E-01
   9.727  0.114E-01  0.568E-02  0.568E-02
   9.729  0.637E-03  0.318E-03  0.318E-03
   9.731  0.470E-03  0.235E-03  0.235E-03
   9.733  0.419E-02  0.209E-02  0.209E-02
   9.735  0.510E-02  0.255E-02  0.255E-02
   9.737  0.841E-03  0.420E-03  0.420E-03
   9.739  0.188E-04  0.938E-05  0.938E-05
   9.741  0.566E-07  0.283E-07  0.283E-07
   9.743  0.231E-10  0.116E-10  0.116E-10
   9.745  0.128E-14  0.640E-15  0.640E-15
   9.747  0.961E-20  0.480E-20  0.480E-20
   9.749  0.166E-21  0.829E-22  0.829E-22
   9.751  0.126E-21  0.628E-22  0.628E-22
   9.753  0.133E-22  0.667E-23  0.667E-23
   9.755  0.661E-23  0.331E-23  0.331E-23
   9.757  0.122E-22  0.610E-23  0.610E-23
   9.759  0.193E-18  0.967E-19  0.967E-19
   9.761  0.161E-13  0.806E-14  0.806E-14
   9.763  0.182E-09  0.909E-10  0.909E-10
   9.765  0.277E-06  0.139E-06  0.139E-06
   9.767  0.573E-04  0.287E-04  0.287E-04
   9.769  0.160E-02  0.801E-03  0.801E-03
   9.771  0.606E-02  0.303E-02  0.303E-02
   9.773  0.311E-02  0.155E-02  0.155E-02
   9.775  0.138E-02  0.690E-03  0.690E-03
   9.777  0.345E-01  0.172E-01  0.172E-01
   9.779  0.138E+00  0.690E-01  0.690E-01
   9.781  0.747E-01  0.374E-01  0.374E-01
   9.783  0.548E-02  0.274E-02  0.274E-02
   9.785  0.544E-04  0.272E-04  0.272E-04
   9.787  0.511E-05  0.255E-05  0.255E-05
   9.789  0.127E-02  0.633E-03  0.633E-03
   9.791  0.435E-01  0.217E-01  0.217E-01
   9.793  0.206E+00  0.103E+00  0.103E+00
   9.795  0.138E+00  0.688E-01  0.688E-01
   9.797  0.134E-01  0.668E-02  0.668E-02
   9.799  0.197E-03  0.986E-04  0.986E-04
   9.801  0.766E-05  0.383E-05  0.383E-05
   9.803  0.113E-02  0.563E-03  0.563E-03
   9.805  0.239E-01  0.119E-01  0.119E-01
   9.807  0.684E-01  0.342E-01  0.342E-01
   9.809  0.272E-01  0.136E-01  0.136E-01
   9.811  0.631E-02  0.315E-02  0.315E-02
   9.813  0.448E-02  0.224E-02  0.224E-02
   9.815  0.549E-03  0.275E-03  0.275E-03
   9.817  0.914E-05  0.457E-05  0.457E-05
   9.819  0.659E-06  0.329E-06  0.329E-06
   9.821  0.701E-04  0.351E-04  0.351E-04
   9.823  0.104E-02  0.522E-03  0.522E-03
   9.825  0.231E-02  0.115E-02  0.115E-02
   9.827  0.159E-01  0.797E-02  0.797E-02
   9.829  0.155E+00  0.775E-01  0.775E-01
   9.831  0.214E+00  0.107E+00  0.107E+00
   9.833  0.446E-01  0.223E-01  0.223E-01
   9.835  0.241E-02  0.120E-02  0.120E-02
   9.837  0.524E-04  0.262E-04  0.262E-04
   9.839  0.228E-06  0.114E-06  0.114E-06
   9.841  0.142E-09  0.711E-10  0.711E-10
   9.843  0.291E-10  0.146E-10  0.146E-10
   9.845  0.753E-07  0.376E-07  0.376E-07
   9.847  0.263E-04  0.132E-04  0.132E-04
   9.849  0.125E-02  0.624E-03  0.624E-03
   9.851  0.803E-02  0.401E-02  0.401E-02
   9.853  0.811E-02  0.406E-02  0.406E-02
   9.855  0.610E-02  0.305E-02  0.305E-02
   9.857  0.321E-02  0.160E-02  0.160E-02
   9.859  0.277E-03  0.138E-03  0.138E-03
   9.861  0.204E-03  0.102E-03  0.102E-03
   9.863  0.357E-03  0.179E-03  0.179E-03
   9.865  0.857E-04  0.429E-04  0.429E-04
   9.867  0.278E-05  0.139E-05  0.139E-05
   9.869  0.444E-06  0.222E-06  0.222E-06
   9.871  0.231E-03  0.115E-03  0.115E-03
   9.873  0.167E-01  0.834E-02  0.834E-02
   9.875  0.164E+00  0.818E-01  0.818E-01
   9.877  0.222E+00  0.111E+00  0.111E+00
   9.879  0.713E-01  0.357E-01  0.357E-01
   9.881  0.330E-01  0.165E-01  0.165E-01
   9.883  0.640E-02  0.320E-02  0.320E-02
   9.885  0.249E-03  0.125E-03  0.125E-03
   9.887  0.161E-05  0.804E-06  0.804E-06
   9.889  0.151E-08  0.756E-09  0.756E-09
   9.891  0.198E-12  0.991E-13  0.991E-13
   9.893  0.173E-10  0.867E-11  0.867E-11
   9.895  0.437E-07  0.219E-07  0.219E-07
   9.897  0.149E-04  0.746E-05  0.746E-05
   9.899  0.690E-03  0.345E-03  0.345E-03
   9.901  0.431E-02  0.216E-02  0.216E-02
   9.903  0.365E-02  0.182E-02  0.182E-02
   9.905  0.418E-03  0.209E-03  0.209E-03
   9.907  0.754E-05  0.377E-05  0.377E-05
   9.909  0.189E-03  0.944E-04  0.944E-04
   9.911  0.453E-02  0.227E-02  0.227E-02
   9.913  0.147E-01  0.737E-02  0.737E-02
   9.915  0.672E-02  0.336E-02  0.336E-02
   9.917  0.141E-02  0.703E-03  0.703E-03
   9.919  0.632E-03  0.316E-03  0.316E-03
   9.921  0.499E-02  0.249E-02  0.249E-02
   9.923  0.933E-01  0.467E-01  0.467E-01
   9.925  0.238E+00  0.119E+00  0.119E+00
   9.927  0.825E-01  0.412E-01  0.412E-01
   9.929  0.386E-02  0.193E-02  0.193E-02
   9.931  0.245E-04  0.122E-04  0.122E-04
   9.933  0.210E-07  0.105E-07  0.105E-07
   9.935  0.243E-11  0.122E-11  0.122E-11
   9.937  0.382E-16  0.191E-16  0.191E-16
   9.939  0.639E-17  0.320E-17  0.320E-17
   9.941  0.283E-12  0.142E-12  0.142E-12
   9.943  0.170E-08  0.852E-09  0.852E-09
   9.945  0.140E-05  0.702E-06  0.702E-06
   9.947  0.166E-03  0.828E-04  0.828E-04
   9.949  0.331E-02  0.166E-02  0.166E-02
   9.951  0.151E-01  0.756E-02  0.756E-02
   9.953  0.155E-01  0.775E-02  0.775E-02
   9.955  0.265E-02  0.132E-02  0.132E-02
   9.957  0.643E-04  0.322E-04  0.322E-04
   9.959  0.214E-06  0.107E-06  0.107E-06
   9.961  0.966E-10  0.483E-10  0.483E-10
   9.963  0.400E-12  0.200E-12  0.200E-12
   9.965  0.478E-08  0.239E-08  0.239E-08
   9.967  0.784E-05  0.392E-05  0.392E-05
   9.969  0.174E-02  0.870E-03  0.870E-03
   9.971  0.523E-01  0.261E-01  0.261E-01
   9.973  0.213E+00  0.106E+00  0.106E+00
   9.975  0.117E+00  0.585E-01  0.585E-01
   9.977  0.911E-02  0.456E-02  0.456E-02
   9.979  0.301E-02  0.150E-02  0.150E-02
   9.981  0.412E-02  0.206E-02  0.206E-02
   9.983  0.152E-02  0.758E-03  0.758E-03
   9.985  0.117E-03  0.584E-04  0.584E-04
   9.987  0.138E-05  0.691E-06  0.691E-06
   9.989  0.164E-06  0.819E-07  0.819E-07
   9.991  0.436E-04  0.218E-04  0.218E-04
   9.993  0.198E-02  0.990E-03  0.990E-03
   9.995  0.136E-01  0.680E-02  0.680E-02
   9.997  0.133E-01  0.663E-02  0.663E-02
   9.999  0.227E-02  0.113E-02  0.113E-02
  10.001  0.338E-02  0.169E-02  0.169E-02
  10.003  0.308E-02  0.154E-02  0.154E-02
  10.005  0.383E-03  0.192E-03  0.192E-03
  10.007  0.646E-05  0.323E-05  0.323E-05
  10.009  0.147E-07  0.737E-08  0.737E-08
  10.011  0.204E-10  0.102E-10  0.102E-10
  10.013  0.901E-07  0.451E-07  0.451E-07
  10.015  0.693E-04  0.346E-04  0.346E-04
  10.017  0.721E-02  0.361E-02  0.361E-02
  10.019  0.102E+00  0.508E-01  0.508E-01
  10.021  0.194E+00  0.968E-01  0.968E-01
  10.023  0.499E-01  0.250E-01  0.250E-01
  10.025  0.174E-02  0.871E-03  0.871E-03
  10.027  0.823E-05  0.412E-05  0.412E-05
  10.029  0.526E-08  0.263E-08  0.263E-08
  10.031  0.456E-12  0.228E-12  0.228E-12
  10.033  0.271E-11  0.135E-11  0.135E-11
  10.035  0.119E-07  0.595E-08  0.595E-08
  10.037  0.731E-05  0.365E-05  0.365E-05
  10.039  0.685E-03  0.343E-03  0.343E-03
  10.041  0.123E-01  0.616E-02  0.616E-02
  10.043  0.501E-01  0.251E-01  0.251E-01
  10.045  0.382E-01  0.191E-01  0.191E-01
  10.047  0.440E-02  0.220E-02  0.220E-02
  10.049  0.713E-04  0.356E-04  0.356E-04
  10.051  0.792E-04  0.396E-04  0.396E-04
  10.053  0.148E-02  0.741E-03  0.741E-03
  10.055  0.444E-02  0.222E-02  0.222E-02
  10.057  0.202E-02  0.101E-02  0.101E-02
  10.059  0.180E-03  0.902E-04  0.902E-04
  10.061  0.402E-02  0.201E-02  0.201E-02
  10.063  0.512E-01  0.256E-01  0.256E-01
  10.065  0.162E+00  0.808E-01  0.808E-01
  10.067  0.184E+00  0.918E-01  0.918E-01
  10.069  0.415E-01  0.208E-01  0.208E-01
  10.071  0.135E-02  0.675E-03  0.675E-03
  10.073  0.598E-05  0.299E-05  0.299E-05
  10.075  0.359E-08  0.179E-08  0.179E-08
  10.077  0.291E-12  0.146E-12  0.146E-12
  10.079  0.320E-17  0.160E-17  0.160E-17
  10.081  0.361E-23  0.180E-23  0.180E-23
  10.083  0.154E-18  0.771E-19  0.771E-19
  10.085  0.156E-13  0.781E-14  0.781E-14
  10.087  0.214E-09  0.107E-09  0.107E-09
  10.089  0.398E-06  0.199E-06  0.199E-06
  10.091  0.999E-04  0.499E-04  0.499E-04
  10.093  0.340E-02  0.170E-02  0.170E-02
  10.095  0.156E-01  0.781E-02  0.781E-02
  10.097  0.973E-02  0.487E-02  0.487E-02
  10.099  0.169E-02  0.843E-03  0.843E-03
  10.101  0.272E-01  0.136E-01  0.136E-01
  10.103  0.116E+00  0.578E-01  0.578E-01
  10.105  0.666E-01  0.333E-01  0.333E-01
  10.107  0.615E-02  0.308E-02  0.308E-02
  10.109  0.323E-01  0.161E-01  0.161E-01
  10.111  0.149E+00  0.743E-01  0.743E-01
  10.113  0.939E-01  0.469E-01  0.469E-01
  10.115  0.808E-02  0.404E-02  0.404E-02
  10.117  0.944E-04  0.472E-04  0.472E-04
  10.119  0.149E-06  0.747E-07  0.747E-07
  10.121  0.320E-10  0.160E-10  0.160E-10
  10.123  0.930E-15  0.465E-15  0.465E-15
  10.125  0.155E-28  0.776E-29  0.776E-29
  10.127  0.329E-32  0.164E-32  0.164E-32
  10.129  0.196E-28  0.978E-29  0.978E-29
  10.131  0.600E-25  0.300E-25  0.300E-25
  10.133  0.249E-22  0.125E-22  0.125E-22
  10.135  0.140E-20  0.700E-21  0.700E-21
  10.137  0.107E-19  0.533E-20  0.533E-20
  10.139  0.114E-16  0.572E-17  0.572E-17
  10.141  0.568E-12  0.284E-12  0.284E-12
  10.143  0.382E-08  0.191E-08  0.191E-08
  10.145  0.348E-05  0.174E-05  0.174E-05
  10.147  0.430E-03  0.215E-03  0.215E-03
  10.149  0.717E-02  0.358E-02  0.358E-02
  10.151  0.164E-01  0.822E-02  0.822E-02
  10.153  0.194E-01  0.971E-02  0.971E-02
  10.155  0.136E+00  0.678E-01  0.678E-01
  10.157  0.265E+00  0.132E+00  0.132E+00
  10.159  0.124E+00  0.622E-01  0.622E-01
  10.161  0.107E-01  0.534E-02  0.534E-02
  10.163  0.138E-03  0.690E-04  0.690E-04
  10.165  0.229E-03  0.115E-03  0.115E-03
  10.167  0.209E-02  0.105E-02  0.105E-02
  10.169  0.260E-02  0.130E-02  0.130E-02
  10.171  0.978E-03  0.489E-03  0.489E-03
  10.173  0.461E-02  0.231E-02  0.231E-02
  10.175  0.539E-02  0.270E-02  0.270E-02
  10.177  0.929E-03  0.464E-03  0.464E-03
  10.179  0.692E-04  0.346E-04  0.346E-04
  10.181  0.391E-03  0.195E-03  0.195E-03
  10.183  0.212E-02  0.106E-02  0.106E-02
  10.185  0.210E-02  0.105E-02  0.105E-02
  10.187  0.673E-03  0.337E-03  0.337E-03
  10.189  0.465E-03  0.233E-03  0.233E-03
  10.191  0.856E-02  0.428E-02  0.428E-02
  10.193  0.287E-01  0.143E-01  0.143E-01
  10.195  0.163E-01  0.813E-02  0.813E-02
  10.197  0.977E-02  0.489E-02  0.489E-02
  10.199  0.712E-01  0.356E-01  0.356E-01
  10.201  0.116E+00  0.582E-01  0.582E-01
  10.203  0.260E-01  0.130E-01  0.130E-01
  10.205  0.969E-03  0.485E-03  0.485E-03
  10.207  0.643E-02  0.322E-02  0.322E-02
  10.209  0.311E-01  0.156E-01  0.156E-01
  10.211  0.205E-01  0.103E-01  0.103E-01
  10.213  0.190E-02  0.948E-03  0.948E-03
  10.215  0.180E-03  0.902E-04  0.902E-04
  10.217  0.207E-03  0.103E-03  0.103E-03
  10.219  0.912E-02  0.456E-02  0.456E-02
  10.221  0.121E+00  0.606E-01  0.606E-01
  10.223  0.251E+00  0.126E+00  0.126E+00
  10.225  0.762E-01  0.381E-01  0.381E-01
  10.227  0.636E-02  0.318E-02  0.318E-02
  10.229  0.417E-02  0.209E-02  0.209E-02
  10.231  0.228E-01  0.114E-01  0.114E-01
  10.233  0.303E-01  0.152E-01  0.152E-01
  10.235  0.551E-02  0.276E-02  0.276E-02
  10.237  0.136E-03  0.681E-04  0.681E-04
  10.239  0.906E-04  0.453E-04  0.453E-04
  10.241  0.340E-02  0.170E-02  0.170E-02
  10.243  0.389E-01  0.195E-01  0.195E-01
  10.245  0.115E+00  0.575E-01  0.575E-01
  10.247  0.558E-01  0.279E-01  0.279E-01
  10.249  0.427E-02  0.214E-02  0.214E-02
  10.251  0.321E-02  0.160E-02  0.160E-02
  10.253  0.441E-02  0.221E-02  0.221E-02
  10.255  0.951E-03  0.475E-03  0.475E-03
  10.257  0.937E-03  0.469E-03  0.469E-03
  10.259  0.213E-01  0.107E-01  0.107E-01
  10.261  0.103E+00  0.513E-01  0.513E-01
  10.263  0.904E-01  0.452E-01  0.452E-01
  10.265  0.152E-01  0.760E-02  0.760E-02
  10.267  0.565E-03  0.282E-03  0.282E-03
  10.269  0.368E-02  0.184E-02  0.184E-02
  10.271  0.171E-01  0.854E-02  0.854E-02
  10.273  0.174E-01  0.869E-02  0.869E-02
  10.275  0.514E-02  0.257E-02  0.257E-02
  10.277  0.313E-03  0.156E-03  0.156E-03
  10.279  0.285E-05  0.142E-05  0.142E-05
  10.281  0.283E-07  0.142E-07  0.142E-07
  10.283  0.701E-05  0.350E-05  0.350E-05
  10.285  0.340E-03  0.170E-03  0.170E-03
  10.287  0.563E-02  0.281E-02  0.281E-02
  10.289  0.521E-01  0.261E-01  0.261E-01
  10.291  0.971E-01  0.486E-01  0.486E-01
  10.293  0.261E-01  0.130E-01  0.130E-01
  10.295  0.294E-01  0.147E-01  0.147E-01
  10.297  0.198E+00  0.992E-01  0.992E-01
  10.299  0.216E+00  0.108E+00  0.108E+00
  10.301  0.118E+00  0.590E-01  0.590E-01
  10.303  0.385E-01  0.193E-01  0.193E-01
  10.305  0.270E-02  0.135E-02  0.135E-02
  10.307  0.208E-01  0.104E-01  0.104E-01
  10.309  0.976E-01  0.488E-01  0.488E-01
  10.311  0.619E-01  0.310E-01  0.310E-01
  10.313  0.532E-02  0.266E-02  0.266E-02
  10.315  0.618E-04  0.309E-04  0.309E-04
  10.317  0.306E-06  0.153E-06  0.153E-06
  10.319  0.442E-04  0.221E-04  0.221E-04
  10.321  0.127E-02  0.633E-03  0.633E-03
  10.323  0.490E-02  0.245E-02  0.245E-02
  10.325  0.267E-02  0.134E-02  0.134E-02
  10.327  0.595E-03  0.298E-03  0.298E-03
  10.329  0.220E-03  0.110E-03  0.110E-03
  10.331  0.419E-04  0.210E-04  0.210E-04
  10.333  0.305E-02  0.152E-02  0.152E-02
  10.335  0.482E-01  0.241E-01  0.241E-01
  10.337  0.104E+00  0.519E-01  0.519E-01
  10.339  0.305E-01  0.153E-01  0.153E-01
  10.341  0.122E-02  0.611E-03  0.611E-03
  10.343  0.114E-03  0.568E-04  0.568E-04
  10.345  0.786E-02  0.393E-02  0.393E-02
  10.347  0.784E-01  0.392E-01  0.392E-01
  10.349  0.109E+00  0.546E-01  0.546E-01
  10.351  0.255E-01  0.128E-01  0.128E-01
  10.353  0.182E-02  0.909E-03  0.909E-03
  10.355  0.610E-04  0.305E-04  0.305E-04
  10.357  0.192E-03  0.960E-04  0.960E-04
  10.359  0.152E-02  0.759E-03  0.759E-03
  10.361  0.129E-01  0.643E-02  0.643E-02
  10.363  0.417E-01  0.209E-01  0.209E-01
  10.365  0.136E+00  0.678E-01  0.678E-01
  10.367  0.913E-01  0.457E-01  0.457E-01
  10.369  0.112E-01  0.562E-02  0.562E-02
  10.371  0.106E-01  0.531E-02  0.531E-02
  10.373  0.127E-01  0.633E-02  0.633E-02
  10.375  0.254E-01  0.127E-01  0.127E-01
  10.377  0.187E+00  0.937E-01  0.937E-01
  10.379  0.234E+00  0.117E+00  0.117E+00
  10.381  0.515E-01  0.257E-01  0.257E-01
  10.383  0.721E-01  0.361E-01  0.361E-01
  10.385  0.573E-01  0.286E-01  0.286E-01
  10.387  0.623E-02  0.312E-02  0.312E-02
  10.389  0.122E-03  0.611E-04  0.611E-04
  10.391  0.149E-03  0.744E-04  0.744E-04
  10.393  0.980E-04  0.490E-04  0.490E-04
  10.395  0.874E-05  0.437E-05  0.437E-05
  10.397  0.297E-06  0.149E-06  0.149E-06
  10.399  0.115E-03  0.576E-04  0.576E-04
  10.401  0.939E-02  0.469E-02  0.469E-02
  10.403  0.104E+00  0.519E-01  0.519E-01
  10.405  0.156E+00  0.780E-01  0.780E-01
  10.407  0.335E-01  0.167E-01  0.167E-01
  10.409  0.238E-02  0.119E-02  0.119E-02
  10.411  0.270E-03  0.135E-03  0.135E-03
  10.413  0.107E-02  0.537E-03  0.537E-03
  10.415  0.175E-02  0.875E-03  0.875E-03
  10.417  0.566E-03  0.283E-03  0.283E-03
  10.419  0.549E-03  0.275E-03  0.275E-03
  10.421  0.215E-03  0.108E-03  0.108E-03
  10.423  0.804E-04  0.402E-04  0.402E-04
  10.425  0.667E-02  0.333E-02  0.333E-02
  10.427  0.882E-01  0.441E-01  0.441E-01
  10.429  0.171E+00  0.856E-01  0.856E-01
  10.431  0.113E+00  0.566E-01  0.566E-01
  10.433  0.604E-01  0.302E-01  0.302E-01
  10.435  0.104E-01  0.522E-02  0.522E-02
  10.437  0.181E-02  0.904E-03  0.904E-03
  10.439  0.139E-03  0.697E-04  0.697E-04
  10.441  0.438E-04  0.219E-04  0.219E-04
  10.443  0.943E-03  0.471E-03  0.471E-03
  10.445  0.394E-02  0.197E-02  0.197E-02
  10.447  0.690E-02  0.345E-02  0.345E-02
  10.449  0.592E-02  0.296E-02  0.296E-02
  10.451  0.981E-03  0.491E-03  0.491E-03
  10.453  0.341E-04  0.170E-04  0.170E-04
  10.455  0.491E-03  0.245E-03  0.245E-03
  10.457  0.173E-01  0.865E-02  0.865E-02
  10.459  0.185E+00  0.927E-01  0.927E-01
  10.461  0.296E+00  0.148E+00  0.148E+00
  10.463  0.648E-01  0.324E-01  0.324E-01
  10.465  0.824E-02  0.412E-02  0.412E-02
  10.467  0.826E-01  0.413E-01  0.413E-01
  10.469  0.207E+00  0.103E+00  0.103E+00
  10.471  0.756E-01  0.378E-01  0.378E-01
  10.473  0.683E-02  0.341E-02  0.341E-02
  10.475  0.126E-01  0.632E-02  0.632E-02
  10.477  0.164E-01  0.820E-02  0.820E-02
  10.479  0.618E-01  0.309E-01  0.309E-01
  10.481  0.684E-01  0.342E-01  0.342E-01
  10.483  0.206E-01  0.103E-01  0.103E-01
  10.485  0.974E-02  0.487E-02  0.487E-02
  10.487  0.130E-02  0.650E-03  0.650E-03
  10.489  0.662E-04  0.331E-04  0.331E-04
  10.491  0.187E-02  0.933E-03  0.933E-03
  10.493  0.127E-01  0.636E-02  0.636E-02
  10.495  0.566E-01  0.283E-01  0.283E-01
  10.497  0.194E+00  0.970E-01  0.970E-01
  10.499  0.108E+00  0.542E-01  0.542E-01
  10.501  0.198E-01  0.989E-02  0.989E-02
  10.503  0.227E-01  0.113E-01  0.113E-01
  10.505  0.113E-01  0.565E-02  0.565E-02
  10.507  0.283E-01  0.141E-01  0.141E-01
  10.509  0.222E-01  0.111E-01  0.111E-01
  10.511  0.523E-02  0.262E-02  0.262E-02
  10.513  0.668E-02  0.334E-02  0.334E-02
  10.515  0.290E-02  0.145E-02  0.145E-02
  10.517  0.713E-03  0.357E-03  0.357E-03
  10.519  0.210E-03  0.105E-03  0.105E-03
  10.521  0.194E-04  0.971E-05  0.971E-05
  10.523  0.827E-03  0.414E-03  0.414E-03
  10.525  0.109E-01  0.547E-02  0.547E-02
  10.527  0.336E-01  0.168E-01  0.168E-01
  10.529  0.745E-01  0.373E-01  0.373E-01
  10.531  0.576E-01  0.288E-01  0.288E-01
  10.533  0.279E-01  0.139E-01  0.139E-01
  10.535  0.947E-02  0.474E-02  0.474E-02
  10.537  0.294E-02  0.147E-02  0.147E-02
  10.539  0.627E-01  0.313E-01  0.313E-01
  10.541  0.228E+00  0.114E+00  0.114E+00
  10.543  0.186E+00  0.932E-01  0.932E-01
  10.545  0.324E+00  0.162E+00  0.162E+00
  10.547  0.183E+00  0.917E-01  0.917E-01
  10.549  0.262E-01  0.131E-01  0.131E-01
  10.551  0.104E-01  0.520E-02  0.520E-02
  10.553  0.910E-02  0.455E-02  0.455E-02
  10.555  0.167E-02  0.834E-03  0.834E-03
  10.557  0.436E-04  0.218E-04  0.218E-04
  10.559  0.204E-03  0.102E-03  0.102E-03
  10.561  0.605E-02  0.303E-02  0.303E-02
  10.563  0.313E-01  0.156E-01  0.156E-01
  10.565  0.343E-01  0.171E-01  0.171E-01
  10.567  0.100E-01  0.501E-02  0.501E-02
  10.569  0.611E-01  0.306E-01  0.306E-01
  10.571  0.210E+00  0.105E+00  0.105E+00
  10.573  0.118E+00  0.588E-01  0.588E-01
  10.575  0.402E-01  0.201E-01  0.201E-01
  10.577  0.290E-01  0.145E-01  0.145E-01
  10.579  0.633E-01  0.317E-01  0.317E-01
  10.581  0.257E-01  0.128E-01  0.128E-01
  10.583  0.141E-02  0.707E-03  0.707E-03
  10.585  0.105E-04  0.527E-05  0.527E-05
  10.587  0.107E-07  0.535E-08  0.535E-08
  10.589  0.328E-07  0.164E-07  0.164E-07
  10.591  0.320E-05  0.160E-05  0.160E-05
  10.593  0.212E-03  0.106E-03  0.106E-03
  10.595  0.466E-02  0.233E-02  0.233E-02
  10.597  0.206E-01  0.103E-01  0.103E-01
  10.599  0.298E-01  0.149E-01  0.149E-01
  10.601  0.119E-01  0.593E-02  0.593E-02
  10.603  0.950E-03  0.475E-03  0.475E-03
  10.605  0.638E-02  0.319E-02  0.319E-02
  10.607  0.292E-01  0.146E-01  0.146E-01
  10.609  0.181E-01  0.907E-02  0.907E-02
  10.611  0.239E-02  0.119E-02  0.119E-02
  10.613  0.132E-02  0.659E-03  0.659E-03
  10.615  0.632E-03  0.316E-03  0.316E-03
  10.617  0.230E-01  0.115E-01  0.115E-01
  10.619  0.198E+00  0.990E-01  0.990E-01
  10.621  0.250E+00  0.125E+00  0.125E+00
  10.623  0.721E-01  0.360E-01  0.360E-01
  10.625  0.312E-01  0.156E-01  0.156E-01
  10.627  0.328E-01  0.164E-01  0.164E-01
  10.629  0.161E+00  0.806E-01  0.806E-01
  10.631  0.358E+00  0.179E+00  0.179E+00
  10.633  0.154E+00  0.770E-01  0.770E-01
  10.635  0.113E-01  0.564E-02  0.564E-02
  10.637  0.182E-01  0.912E-02  0.912E-02
  10.639  0.251E-01  0.125E-01  0.125E-01
  10.641  0.492E-02  0.246E-02  0.246E-02
  10.643  0.740E-02  0.370E-02  0.370E-02
  10.645  0.447E-01  0.223E-01  0.223E-01
  10.647  0.105E+00  0.526E-01  0.526E-01
  10.649  0.238E+00  0.119E+00  0.119E+00
  10.651  0.134E+00  0.670E-01  0.670E-01
  10.653  0.394E-01  0.197E-01  0.197E-01
  10.655  0.289E-01  0.145E-01  0.145E-01
  10.657  0.388E-02  0.194E-02  0.194E-02
  10.659  0.135E-03  0.674E-04  0.674E-04
  10.661  0.310E-04  0.155E-04  0.155E-04
  10.663  0.200E-05  0.999E-06  0.999E-06
  10.665  0.833E-07  0.416E-07  0.416E-07
  10.667  0.246E-04  0.123E-04  0.123E-04
  10.669  0.199E-02  0.995E-03  0.995E-03
  10.671  0.233E-01  0.117E-01  0.117E-01
  10.673  0.374E-01  0.187E-01  0.187E-01
  10.675  0.105E-01  0.525E-02  0.525E-02
  10.677  0.356E-01  0.178E-01  0.178E-01
  10.679  0.835E-01  0.417E-01  0.417E-01
  10.681  0.365E-01  0.183E-01  0.183E-01
  10.683  0.303E-02  0.151E-02  0.151E-02
  10.685  0.433E-04  0.216E-04  0.216E-04
  10.687  0.157E-05  0.783E-06  0.783E-06
  10.689  0.759E-04  0.380E-04  0.380E-04
  10.691  0.535E-03  0.268E-03  0.268E-03
  10.693  0.515E-03  0.258E-03  0.258E-03
  10.695  0.617E-03  0.308E-03  0.308E-03
  10.697  0.938E-02  0.469E-02  0.469E-02
  10.699  0.238E-01  0.119E-01  0.119E-01
  10.701  0.462E-01  0.231E-01  0.231E-01
  10.703  0.245E+00  0.122E+00  0.122E+00
  10.705  0.269E+00  0.135E+00  0.135E+00
  10.707  0.447E-01  0.223E-01  0.223E-01
  10.709  0.113E-02  0.564E-03  0.564E-03
  10.711  0.403E-03  0.202E-03  0.202E-03
  10.713  0.139E-01  0.697E-02  0.697E-02
  10.715  0.182E+00  0.910E-01  0.910E-01
  10.717  0.332E+00  0.166E+00  0.166E+00
  10.719  0.861E-01  0.430E-01  0.430E-01
  10.721  0.178E-01  0.890E-02  0.890E-02
  10.723  0.373E-01  0.186E-01  0.186E-01
  10.725  0.389E-01  0.194E-01  0.194E-01
  10.727  0.986E-01  0.493E-01  0.493E-01
  10.729  0.981E-01  0.491E-01  0.491E-01
  10.731  0.227E+00  0.114E+00  0.114E+00
  10.733  0.144E+00  0.718E-01  0.718E-01
  10.735  0.134E-01  0.672E-02  0.672E-02
  10.737  0.126E-02  0.628E-03  0.628E-03
  10.739  0.766E-03  0.383E-03  0.383E-03
  10.741  0.143E-03  0.716E-04  0.716E-04
  10.743  0.554E-04  0.277E-04  0.277E-04
  10.745  0.358E-03  0.179E-03  0.179E-03
  10.747  0.124E-02  0.620E-03  0.620E-03
  10.749  0.841E-03  0.421E-03  0.421E-03
  10.751  0.846E-02  0.423E-02  0.423E-02
  10.753  0.532E-01  0.266E-01  0.266E-01
  10.755  0.586E-01  0.293E-01  0.293E-01
  10.757  0.119E-01  0.597E-02  0.597E-02
  10.759  0.131E-02  0.654E-03  0.654E-03
  10.761  0.104E-03  0.521E-04  0.521E-04
  10.763  0.912E-03  0.456E-03  0.456E-03
  10.765  0.181E-01  0.905E-02  0.905E-02
  10.767  0.604E-01  0.302E-01  0.302E-01
  10.769  0.419E-01  0.210E-01  0.210E-01
  10.771  0.693E-02  0.347E-02  0.347E-02
  10.773  0.148E-01  0.739E-02  0.739E-02
  10.775  0.520E-01  0.260E-01  0.260E-01
  10.777  0.262E-01  0.131E-01  0.131E-01
  10.779  0.360E-02  0.180E-02  0.180E-02
  10.781  0.165E-01  0.826E-02  0.826E-02
  10.783  0.698E-01  0.349E-01  0.349E-01
  10.785  0.689E-01  0.345E-01  0.345E-01
  10.787  0.123E-01  0.617E-02  0.617E-02
  10.789  0.331E-01  0.166E-01  0.166E-01
  10.791  0.218E+00  0.109E+00  0.109E+00
  10.793  0.288E+00  0.144E+00  0.144E+00
  10.795  0.587E-01  0.294E-01  0.294E-01
  10.797  0.199E-01  0.996E-02  0.996E-02
  10.799  0.204E+00  0.102E+00  0.102E+00
  10.801  0.313E+00  0.156E+00  0.156E+00
  10.803  0.678E-01  0.339E-01  0.339E-01
  10.805  0.339E-01  0.169E-01  0.169E-01
  10.807  0.560E-01  0.280E-01  0.280E-01
  10.809  0.561E-01  0.281E-01  0.281E-01
  10.811  0.579E-01  0.289E-01  0.289E-01
  10.813  0.185E-01  0.927E-02  0.927E-02
  10.815  0.926E-01  0.463E-01  0.463E-01
  10.817  0.253E+00  0.126E+00  0.126E+00
  10.819  0.113E+00  0.563E-01  0.563E-01
  10.821  0.569E-01  0.285E-01  0.285E-01
  10.823  0.205E-01  0.102E-01  0.102E-01
  10.825  0.158E-02  0.792E-03  0.792E-03
  10.827  0.627E-03  0.313E-03  0.313E-03
  10.829  0.104E-03  0.520E-04  0.520E-04
  10.831  0.260E-05  0.130E-05  0.130E-05
  10.833  0.363E-04  0.182E-04  0.182E-04
  10.835  0.846E-03  0.423E-03  0.423E-03
  10.837  0.363E-02  0.181E-02  0.181E-02
  10.839  0.368E-02  0.184E-02  0.184E-02
  10.841  0.125E-01  0.626E-02  0.626E-02
  10.843  0.523E-01  0.262E-01  0.262E-01
  10.845  0.332E-01  0.166E-01  0.166E-01
  10.847  0.347E-02  0.173E-02  0.173E-02
  10.849  0.132E-02  0.660E-03  0.660E-03
  10.851  0.165E-01  0.824E-02  0.824E-02
  10.853  0.434E-01  0.217E-01  0.217E-01
  10.855  0.184E-01  0.918E-02  0.918E-02
  10.857  0.328E-01  0.164E-01  0.164E-01
  10.859  0.493E-01  0.247E-01  0.247E-01
  10.861  0.193E-01  0.967E-02  0.967E-02
  10.863  0.536E-01  0.268E-01  0.268E-01
  10.865  0.630E-01  0.315E-01  0.315E-01
  10.867  0.288E-01  0.144E-01  0.144E-01
  10.869  0.831E-02  0.415E-02  0.415E-02
  10.871  0.278E-02  0.139E-02  0.139E-02
  10.873  0.475E-02  0.238E-02  0.238E-02
  10.875  0.336E-02  0.168E-02  0.168E-02
  10.877  0.299E-02  0.149E-02  0.149E-02
  10.879  0.676E-01  0.338E-01  0.338E-01
  10.881  0.372E+00  0.186E+00  0.186E+00
  10.883  0.489E+00  0.244E+00  0.244E+00
  10.885  0.191E+00  0.957E-01  0.957E-01
  10.887  0.142E-01  0.711E-02  0.711E-02
  10.889  0.240E-02  0.120E-02  0.120E-02
  10.891  0.264E-01  0.132E-01  0.132E-01
  10.893  0.419E-01  0.209E-01  0.209E-01
  10.895  0.904E-02  0.452E-02  0.452E-02
  10.897  0.795E-03  0.397E-03  0.397E-03
  10.899  0.229E-02  0.114E-02  0.114E-02
  10.901  0.312E-01  0.156E-01  0.156E-01
  10.903  0.150E+00  0.750E-01  0.750E-01
  10.905  0.303E+00  0.152E+00  0.152E+00
  10.907  0.165E+00  0.825E-01  0.825E-01
  10.909  0.663E-01  0.332E-01  0.332E-01
  10.911  0.366E-01  0.183E-01  0.183E-01
  10.913  0.224E-01  0.112E-01  0.112E-01
  10.915  0.436E-01  0.218E-01  0.218E-01
  10.917  0.174E-01  0.870E-02  0.870E-02
  10.919  0.146E-01  0.730E-02  0.730E-02
  10.921  0.539E-01  0.269E-01  0.269E-01
  10.923  0.476E-01  0.238E-01  0.238E-01
  10.925  0.256E-01  0.128E-01  0.128E-01
  10.927  0.474E-01  0.237E-01  0.237E-01
  10.929  0.265E-01  0.133E-01  0.133E-01
  10.931  0.327E-02  0.163E-02  0.163E-02
  10.933  0.217E-01  0.108E-01  0.108E-01
  10.935  0.752E-01  0.376E-01  0.376E-01
  10.937  0.557E-01  0.279E-01  0.279E-01
  10.939  0.794E-02  0.397E-02  0.397E-02
  10.941  0.375E-03  0.188E-03  0.188E-03
  10.943  0.364E-02  0.182E-02  0.182E-02
  10.945  0.930E-02  0.465E-02  0.465E-02
  10.947  0.344E-02  0.172E-02  0.172E-02
  10.949  0.196E-02  0.979E-03  0.979E-03
  10.951  0.855E-02  0.427E-02  0.427E-02
  10.953  0.875E-02  0.437E-02  0.437E-02
  10.955  0.412E-01  0.206E-01  0.206E-01
  10.957  0.207E+00  0.104E+00  0.104E+00
  10.959  0.364E+00  0.182E+00  0.182E+00
  10.961  0.126E+00  0.628E-01  0.628E-01
  10.963  0.781E-01  0.390E-01  0.390E-01
  10.965  0.762E-01  0.381E-01  0.381E-01
  10.967  0.196E-01  0.978E-02  0.978E-02
  10.969  0.830E-03  0.415E-03  0.415E-03
  10.971  0.580E-03  0.290E-03  0.290E-03
  10.973  0.215E-01  0.108E-01  0.108E-01
  10.975  0.220E+00  0.110E+00  0.110E+00
  10.977  0.342E+00  0.171E+00  0.171E+00
  10.979  0.117E+00  0.587E-01  0.587E-01
  10.981  0.682E-01  0.341E-01  0.341E-01
  10.983  0.316E-01  0.158E-01  0.158E-01
  10.985  0.383E-02  0.192E-02  0.192E-02
  10.987  0.257E-01  0.129E-01  0.129E-01
  10.989  0.862E-01  0.431E-01  0.431E-01
  10.991  0.595E-01  0.298E-01  0.298E-01
  10.993  0.183E-01  0.916E-02  0.916E-02
  10.995  0.140E+00  0.698E-01  0.698E-01
  10.997  0.263E+00  0.131E+00  0.131E+00
  10.999  0.682E-01  0.341E-01  0.341E-01
  11.001  0.559E-02  0.280E-02  0.280E-02
  11.003  0.333E-01  0.167E-01  0.167E-01
  11.005  0.482E-01  0.241E-01  0.241E-01
  11.007  0.106E-01  0.532E-02  0.532E-02
  11.009  0.935E-03  0.467E-03  0.467E-03
  11.011  0.518E-04  0.259E-04  0.259E-04
  11.013  0.520E-06  0.260E-06  0.260E-06
  11.015  0.901E-06  0.450E-06  0.450E-06
  11.017  0.159E-04  0.797E-05  0.797E-05
  11.019  0.882E-04  0.441E-04  0.441E-04
  11.021  0.494E-03  0.247E-03  0.247E-03
  11.023  0.121E-01  0.606E-02  0.606E-02
  11.025  0.651E-01  0.325E-01  0.325E-01
  11.027  0.540E-01  0.270E-01  0.270E-01
  11.029  0.911E-01  0.455E-01  0.455E-01
  11.031  0.279E+00  0.140E+00  0.140E+00
  11.033  0.137E+00  0.685E-01  0.685E-01
  11.035  0.388E-01  0.194E-01  0.194E-01
  11.037  0.191E-01  0.954E-02  0.954E-02
  11.039  0.854E-02  0.427E-02  0.427E-02
  11.041  0.457E-02  0.228E-02  0.228E-02
  11.043  0.108E-01  0.539E-02  0.539E-02
  11.045  0.409E-01  0.204E-01  0.204E-01
  11.047  0.372E-01  0.186E-01  0.186E-01
  11.049  0.490E-02  0.245E-02  0.245E-02
  11.051  0.105E-02  0.527E-03  0.527E-03
  11.053  0.203E-02  0.101E-02  0.101E-02
  11.055  0.220E-01  0.110E-01  0.110E-01
  11.057  0.464E-01  0.232E-01  0.232E-01
  11.059  0.211E-01  0.105E-01  0.105E-01
  11.061  0.334E-01  0.167E-01  0.167E-01
  11.063  0.543E-01  0.271E-01  0.271E-01
  11.065  0.176E-01  0.882E-02  0.882E-02
  11.067  0.373E-01  0.187E-01  0.187E-01
  11.069  0.255E+00  0.127E+00  0.127E+00
  11.071  0.244E+00  0.122E+00  0.122E+00
  11.073  0.344E-01  0.172E-01  0.172E-01
  11.075  0.428E-02  0.214E-02  0.214E-02
  11.077  0.220E-01  0.110E-01  0.110E-01
  11.079  0.572E-01  0.286E-01  0.286E-01
  11.081  0.565E-01  0.283E-01  0.283E-01
  11.083  0.461E-01  0.231E-01  0.231E-01
  11.085  0.585E-01  0.292E-01  0.292E-01
  11.087  0.628E-01  0.314E-01  0.314E-01
  11.089  0.219E+00  0.110E+00  0.110E+00
  11.091  0.280E+00  0.140E+00  0.140E+00
  11.093  0.657E-01  0.328E-01  0.328E-01
  11.095  0.398E-01  0.199E-01  0.199E-01
  11.097  0.211E+00  0.106E+00  0.106E+00
  11.099  0.174E+00  0.869E-01  0.869E-01
  11.101  0.194E-01  0.969E-02  0.969E-02
  11.103  0.155E-02  0.773E-03  0.773E-03
  11.105  0.542E-02  0.271E-02  0.271E-02
  11.107  0.350E-02  0.175E-02  0.175E-02
  11.109  0.101E-01  0.507E-02  0.507E-02
  11.111  0.398E-01  0.199E-01  0.199E-01
  11.113  0.245E-01  0.123E-01  0.123E-01
  11.115  0.172E-01  0.861E-02  0.861E-02
  11.117  0.117E-01  0.585E-02  0.585E-02
  11.119  0.121E-02  0.606E-03  0.606E-03
  11.121  0.172E-04  0.862E-05  0.862E-05
  11.123  0.480E-07  0.240E-07  0.240E-07
  11.125  0.796E-06  0.398E-06  0.398E-06
  11.127  0.869E-05  0.434E-05  0.434E-05
  11.129  0.380E-03  0.190E-03  0.190E-03
  11.131  0.957E-02  0.479E-02  0.479E-02
  11.133  0.438E-01  0.219E-01  0.219E-01
  11.135  0.396E-01  0.198E-01  0.198E-01
  11.137  0.842E-02  0.421E-02  0.421E-02
  11.139  0.665E-02  0.332E-02  0.332E-02
  11.141  0.229E-01  0.114E-01  0.114E-01
  11.143  0.957E-01  0.479E-01  0.479E-01
  11.145  0.120E+00  0.600E-01  0.600E-01
  11.147  0.571E-01  0.286E-01  0.286E-01
  11.149  0.274E-01  0.137E-01  0.137E-01
  11.151  0.255E-01  0.128E-01  0.128E-01
  11.153  0.611E-02  0.305E-02  0.305E-02
  11.155  0.207E-01  0.104E-01  0.104E-01
  11.157  0.159E+00  0.794E-01  0.794E-01
  11.159  0.194E+00  0.972E-01  0.972E-01
  11.161  0.114E+00  0.572E-01  0.572E-01
  11.163  0.308E+00  0.154E+00  0.154E+00
  11.165  0.155E+00  0.773E-01  0.773E-01
  11.167  0.105E-01  0.527E-02  0.527E-02
  11.169  0.321E-03  0.160E-03  0.160E-03
  11.171  0.130E-02  0.648E-03  0.648E-03
  11.173  0.102E-02  0.509E-03  0.509E-03
  11.175  0.172E-03  0.861E-04  0.861E-04
  11.177  0.129E-02  0.647E-03  0.647E-03
  11.179  0.581E-02  0.290E-02  0.290E-02
  11.181  0.638E-02  0.319E-02  0.319E-02
  11.183  0.267E-01  0.134E-01  0.134E-01
  11.185  0.205E+00  0.102E+00  0.102E+00
  11.187  0.247E+00  0.124E+00  0.124E+00
  11.189  0.825E-01  0.412E-01  0.412E-01
  11.191  0.135E-01  0.676E-02  0.676E-02
  11.193  0.201E-02  0.101E-02  0.101E-02
  11.195  0.194E-01  0.971E-02  0.971E-02
  11.197  0.447E-01  0.223E-01  0.223E-01
  11.199  0.419E-01  0.209E-01  0.209E-01
  11.201  0.596E-01  0.298E-01  0.298E-01
  11.203  0.362E-01  0.181E-01  0.181E-01
  11.205  0.106E-01  0.528E-02  0.528E-02
  11.207  0.232E-01  0.116E-01  0.116E-01
  11.209  0.579E-01  0.289E-01  0.289E-01
  11.211  0.172E+00  0.860E-01  0.860E-01
  11.213  0.172E+00  0.858E-01  0.858E-01
  11.215  0.321E-01  0.160E-01  0.160E-01
  11.217  0.158E-02  0.790E-03  0.790E-03
  11.219  0.257E-02  0.129E-02  0.129E-02
  11.221  0.323E-01  0.162E-01  0.162E-01
  11.223  0.562E-01  0.281E-01  0.281E-01
  11.225  0.132E-01  0.661E-02  0.661E-02
  11.227  0.421E-03  0.211E-03  0.211E-03
  11.229  0.182E-05  0.908E-06  0.908E-06
  11.231  0.118E-05  0.588E-06  0.588E-06
  11.233  0.128E-03  0.639E-04  0.639E-04
  11.235  0.228E-02  0.114E-02  0.114E-02
  11.237  0.103E-01  0.513E-02  0.513E-02
  11.239  0.124E-01  0.619E-02  0.619E-02
  11.241  0.265E-02  0.132E-02  0.132E-02
  11.243  0.976E-03  0.488E-03  0.488E-03
  11.245  0.447E-02  0.223E-02  0.223E-02
  11.247  0.230E-01  0.115E-01  0.115E-01
  11.249  0.415E-01  0.207E-01  0.207E-01
  11.251  0.337E-01  0.168E-01  0.168E-01
  11.253  0.945E-01  0.472E-01  0.472E-01
  11.255  0.328E+00  0.164E+00  0.164E+00
  11.257  0.210E+00  0.105E+00  0.105E+00
  11.259  0.976E-01  0.488E-01  0.488E-01
  11.261  0.140E+00  0.701E-01  0.701E-01
  11.263  0.358E-01  0.179E-01  0.179E-01
  11.265  0.125E-02  0.623E-03  0.623E-03
  11.267  0.180E-04  0.900E-05  0.900E-05
  11.269  0.811E-03  0.405E-03  0.405E-03
  11.271  0.115E-01  0.577E-02  0.577E-02
  11.273  0.343E-01  0.171E-01  0.171E-01
  11.275  0.167E-01  0.835E-02  0.835E-02
  11.277  0.117E-02  0.584E-03  0.584E-03
  11.279  0.697E-03  0.349E-03  0.349E-03
  11.281  0.334E-01  0.167E-01  0.167E-01
  11.283  0.220E+00  0.110E+00  0.110E+00
  11.285  0.196E+00  0.978E-01  0.978E-01
  11.287  0.236E-01  0.118E-01  0.118E-01
  11.289  0.480E-03  0.240E-03  0.240E-03
  11.291  0.637E-03  0.319E-03  0.319E-03
  11.293  0.641E-03  0.320E-03  0.320E-03
  11.295  0.671E-03  0.336E-03  0.336E-03
  11.297  0.128E-01  0.639E-02  0.639E-02
  11.299  0.429E-01  0.215E-01  0.215E-01
  11.301  0.495E-01  0.248E-01  0.248E-01
  11.303  0.101E+00  0.504E-01  0.504E-01
  11.305  0.924E-01  0.462E-01  0.462E-01
  11.307  0.269E-01  0.135E-01  0.135E-01
  11.309  0.523E-01  0.262E-01  0.262E-01
  11.311  0.358E-01  0.179E-01  0.179E-01
  11.313  0.418E-01  0.209E-01  0.209E-01
  11.315  0.940E-01  0.470E-01  0.470E-01
  11.317  0.330E-01  0.165E-01  0.165E-01
  11.319  0.160E-02  0.798E-03  0.798E-03
  11.321  0.107E-04  0.533E-05  0.533E-05
  11.323  0.983E-08  0.491E-08  0.491E-08
  11.325  0.413E-08  0.206E-08  0.206E-08
  11.327  0.208E-05  0.104E-05  0.104E-05
  11.329  0.151E-03  0.753E-04  0.753E-04
  11.331  0.160E-02  0.802E-03  0.802E-03
  11.333  0.262E-02  0.131E-02  0.131E-02
  11.335  0.361E-02  0.180E-02  0.180E-02
  11.337  0.305E-01  0.153E-01  0.153E-01
  11.339  0.423E-01  0.211E-01  0.211E-01
  11.341  0.159E-01  0.796E-02  0.796E-02
  11.343  0.136E+00  0.680E-01  0.680E-01
  11.345  0.339E+00  0.169E+00  0.169E+00
  11.347  0.165E+00  0.823E-01  0.823E-01
  11.349  0.583E-01  0.292E-01  0.292E-01
  11.351  0.412E-01  0.206E-01  0.206E-01
  11.353  0.198E-01  0.989E-02  0.989E-02
  11.355  0.375E-01  0.188E-01  0.188E-01
  11.357  0.837E-01  0.418E-01  0.418E-01
  11.359  0.641E-01  0.320E-01  0.320E-01
  11.361  0.261E-01  0.130E-01  0.130E-01
  11.363  0.409E-01  0.205E-01  0.205E-01
  11.365  0.802E-01  0.401E-01  0.401E-01
  11.367  0.909E-01  0.455E-01  0.455E-01
  11.369  0.502E-01  0.251E-01  0.251E-01
  11.371  0.761E-02  0.380E-02  0.380E-02
  11.373  0.403E-03  0.201E-03  0.201E-03
  11.375  0.431E-05  0.216E-05  0.216E-05
  11.377  0.720E-05  0.360E-05  0.360E-05
  11.379  0.173E-02  0.867E-03  0.867E-03
  11.381  0.565E-01  0.283E-01  0.283E-01
  11.383  0.250E+00  0.125E+00  0.125E+00
  11.385  0.152E+00  0.762E-01  0.762E-01
  11.387  0.145E-01  0.725E-02  0.725E-02
  11.389  0.420E-03  0.210E-03  0.210E-03
  11.391  0.294E-04  0.147E-04  0.147E-04
  11.393  0.175E-02  0.874E-03  0.874E-03
  11.395  0.252E-01  0.126E-01  0.126E-01
  11.397  0.601E-01  0.300E-01  0.300E-01
  11.399  0.871E-01  0.436E-01  0.436E-01
  11.401  0.139E+00  0.697E-01  0.697E-01
  11.403  0.669E-01  0.335E-01  0.335E-01
  11.405  0.354E-01  0.177E-01  0.177E-01
  11.407  0.310E-01  0.155E-01  0.155E-01
  11.409  0.445E-02  0.222E-02  0.222E-02
  11.411  0.144E-03  0.719E-04  0.719E-04
  11.413  0.101E-03  0.504E-04  0.504E-04
  11.415  0.327E-04  0.163E-04  0.163E-04
  11.417  0.269E-04  0.135E-04  0.135E-04
  11.419  0.114E-04  0.570E-05  0.570E-05
  11.421  0.681E-06  0.340E-06  0.340E-06
  11.423  0.882E-05  0.441E-05  0.441E-05
  11.425  0.142E-02  0.712E-03  0.712E-03
  11.427  0.418E-01  0.209E-01  0.209E-01
  11.429  0.250E+00  0.125E+00  0.125E+00
  11.431  0.278E+00  0.139E+00  0.139E+00
  11.433  0.949E-01  0.474E-01  0.474E-01
  11.435  0.415E-01  0.208E-01  0.208E-01
  11.437  0.492E-02  0.246E-02  0.246E-02
  11.439  0.608E-02  0.304E-02  0.304E-02
  11.441  0.269E-01  0.135E-01  0.135E-01
  11.443  0.551E-01  0.275E-01  0.275E-01
  11.445  0.328E-01  0.164E-01  0.164E-01
  11.447  0.385E-01  0.193E-01  0.193E-01
  11.449  0.440E-01  0.220E-01  0.220E-01
  11.451  0.241E-01  0.121E-01  0.121E-01
  11.453  0.197E-01  0.983E-02  0.983E-02
  11.455  0.411E-01  0.206E-01  0.206E-01
  11.457  0.133E-01  0.664E-02  0.664E-02
  11.459  0.132E-02  0.662E-03  0.662E-03
  11.461  0.200E-01  0.100E-01  0.100E-01
  11.463  0.730E-01  0.365E-01  0.365E-01
  11.465  0.362E-01  0.181E-01  0.181E-01
  11.467  0.513E-02  0.256E-02  0.256E-02
  11.469  0.784E-02  0.392E-02  0.392E-02
  11.471  0.304E-02  0.152E-02  0.152E-02
  11.473  0.163E-03  0.814E-04  0.814E-04
  11.475  0.419E-03  0.210E-03  0.210E-03
  11.477  0.100E-01  0.501E-02  0.501E-02
  11.479  0.326E-01  0.163E-01  0.163E-01
  11.481  0.233E-01  0.117E-01  0.117E-01
  11.483  0.134E+00  0.670E-01  0.670E-01
  11.485  0.285E+00  0.142E+00  0.142E+00
  11.487  0.119E+00  0.596E-01  0.596E-01
  11.489  0.329E-01  0.165E-01  0.165E-01
  11.491  0.300E-01  0.150E-01  0.150E-01
  11.493  0.284E-01  0.142E-01  0.142E-01
  11.495  0.370E-01  0.185E-01  0.185E-01
  11.497  0.149E-01  0.743E-02  0.743E-02
  11.499  0.622E-01  0.311E-01  0.311E-01
  11.501  0.985E-01  0.492E-01  0.492E-01
  11.503  0.905E-01  0.452E-01  0.452E-01
  11.505  0.653E-01  0.327E-01  0.327E-01
  11.507  0.455E-01  0.228E-01  0.228E-01
  11.509  0.224E+00  0.112E+00  0.112E+00
  11.511  0.186E+00  0.932E-01  0.932E-01
  11.513  0.210E-01  0.105E-01  0.105E-01
  11.515  0.322E-03  0.161E-03  0.161E-03
  11.517  0.421E-03  0.210E-03  0.210E-03
  11.519  0.149E-01  0.746E-02  0.746E-02
  11.521  0.753E-01  0.376E-01  0.376E-01
  11.523  0.624E-01  0.312E-01  0.312E-01
  11.525  0.633E-01  0.317E-01  0.317E-01
  11.527  0.655E-01  0.327E-01  0.327E-01
  11.529  0.279E-01  0.139E-01  0.139E-01
  11.531  0.106E-01  0.528E-02  0.528E-02
  11.533  0.158E-02  0.792E-03  0.792E-03
  11.535  0.491E-02  0.245E-02  0.245E-02
  11.537  0.278E-01  0.139E-01  0.139E-01
  11.539  0.434E-01  0.217E-01  0.217E-01
  11.541  0.388E-01  0.194E-01  0.194E-01
  11.543  0.609E-01  0.304E-01  0.304E-01
  11.545  0.299E-01  0.150E-01  0.150E-01
  11.547  0.212E-01  0.106E-01  0.106E-01
  11.549  0.238E-01  0.119E-01  0.119E-01
  11.551  0.264E-01  0.132E-01  0.132E-01
  11.553  0.502E-01  0.251E-01  0.251E-01
  11.555  0.215E-01  0.108E-01  0.108E-01
  11.557  0.134E-02  0.671E-03  0.671E-03
  11.559  0.176E-02  0.878E-03  0.878E-03
  11.561  0.141E-01  0.704E-02  0.704E-02
  11.563  0.226E-01  0.113E-01  0.113E-01
  11.565  0.987E-02  0.494E-02  0.494E-02
  11.567  0.283E-02  0.141E-02  0.141E-02
  11.569  0.972E-02  0.486E-02  0.486E-02
  11.571  0.829E-02  0.415E-02  0.415E-02
  11.573  0.228E-01  0.114E-01  0.114E-01
  11.575  0.846E-01  0.423E-01  0.423E-01
  11.577  0.635E-01  0.317E-01  0.317E-01
  11.579  0.109E+00  0.545E-01  0.545E-01
  11.581  0.253E+00  0.127E+00  0.127E+00
  11.583  0.115E+00  0.576E-01  0.576E-01
  11.585  0.976E-01  0.488E-01  0.488E-01
  11.587  0.257E+00  0.129E+00  0.129E+00
  11.589  0.119E+00  0.595E-01  0.595E-01
  11.591  0.177E-01  0.885E-02  0.885E-02
  11.593  0.174E-01  0.870E-02  0.870E-02
  11.595  0.607E-02  0.304E-02  0.304E-02
  11.597  0.805E-03  0.402E-03  0.402E-03
  11.599  0.286E-03  0.143E-03  0.143E-03
  11.601  0.319E-03  0.160E-03  0.160E-03
  11.603  0.357E-02  0.178E-02  0.178E-02
  11.605  0.159E-01  0.793E-02  0.793E-02
  11.607  0.141E-01  0.706E-02  0.706E-02
  11.609  0.797E-02  0.399E-02  0.399E-02
  11.611  0.778E-02  0.389E-02  0.389E-02
  11.613  0.928E-02  0.464E-02  0.464E-02
  11.615  0.127E-01  0.633E-02  0.633E-02
  11.617  0.124E-01  0.620E-02  0.620E-02
  11.619  0.576E-02  0.288E-02  0.288E-02
  11.621  0.116E-01  0.581E-02  0.581E-02
  11.623  0.592E-01  0.296E-01  0.296E-01
  11.625  0.112E+00  0.558E-01  0.558E-01
  11.627  0.322E-01  0.161E-01  0.161E-01
