# E (eV)   ldos(E)   pdos(E)_1   pdos(E)_2   
   7.605  0.115E-04  0.577E-05  0.577E-05
   7.607  0.722E-03  0.361E-03  0.361E-03
   7.609  0.639E-02  0.320E-02  0.320E-02
   7.611  0.103E-01  0.514E-02  0.514E-02
   7.613  0.705E-02  0.353E-02  0.353E-02
   7.615  0.253E-02  0.126E-02  0.126E-02
   7.617  0.234E-03  0.117E-03  0.117E-03
   7.619  0.475E-03  0.237E-03  0.237E-03
   7.621  0.164E-02  0.819E-03  0.819E-03
   7.623  0.769E-03  0.385E-03  0.385E-03
   7.625  0.489E-04  0.244E-04  0.244E-04
   7.627  0.420E-06  0.210E-06  0.210E-06
   7.629  0.489E-09  0.245E-09  0.245E-09
   7.631  0.771E-13  0.386E-13  0.386E-13
   7.633  0.167E-17  0.834E-18  0.834E-18
   7.635  0.254E-14  0.127E-14  0.127E-14
   7.637  0.364E-10  0.182E-10  0.182E-10
   7.639  0.710E-07  0.355E-07  0.355E-07
   7.641  0.191E-04  0.956E-05  0.956E-05
   7.643  0.736E-03  0.368E-03  0.368E-03
   7.645  0.432E-02  0.216E-02  0.216E-02
   7.647  0.422E-02  0.211E-02  0.211E-02
   7.649  0.736E-03  0.368E-03  0.368E-03
   7.651  0.490E-03  0.245E-03  0.245E-03
   7.653  0.143E-02  0.713E-03  0.713E-03
   7.655  0.612E-03  0.306E-03  0.306E-03
   7.657  0.140E-02  0.698E-03  0.698E-03
   7.659  0.921E-02  0.460E-02  0.460E-02
   7.661  0.842E-02  0.421E-02  0.421E-02
   7.663  0.108E-02  0.538E-03  0.538E-03
   7.665  0.141E-02  0.705E-03  0.705E-03
   7.667  0.760E-02  0.380E-02  0.380E-02
   7.669  0.561E-02  0.280E-02  0.280E-02
   7.671  0.560E-03  0.280E-03  0.280E-03
   7.673  0.170E-04  0.852E-05  0.852E-05
   7.675  0.480E-03  0.240E-03  0.240E-03
   7.677  0.340E-02  0.170E-02  0.170E-02
   7.679  0.337E-02  0.169E-02  0.169E-02
   7.681  0.616E-03  0.308E-03  0.308E-03
   7.683  0.105E-02  0.523E-03  0.523E-03
   7.685  0.383E-02  0.192E-02  0.192E-02
   7.687  0.172E-01  0.862E-02  0.862E-02
   7.689  0.134E-01  0.668E-02  0.668E-02
   7.691  0.141E-02  0.704E-03  0.704E-03
   7.693  0.201E-04  0.101E-04  0.101E-04
   7.695  0.389E-07  0.194E-07  0.194E-07
   7.697  0.102E-10  0.508E-11  0.508E-11
   7.699  0.930E-12  0.465E-12  0.465E-12
   7.701  0.399E-08  0.199E-08  0.199E-08
   7.703  0.232E-05  0.116E-05  0.116E-05
   7.705  0.184E-03  0.922E-04  0.922E-04
   7.707  0.199E-02  0.994E-03  0.994E-03
   7.709  0.293E-02  0.146E-02  0.146E-02
   7.711  0.871E-03  0.435E-03  0.435E-03
   7.713  0.924E-03  0.462E-03  0.462E-03
   7.715  0.387E-03  0.193E-03  0.193E-03
   7.717  0.223E-04  0.111E-04  0.111E-04
   7.719  0.174E-06  0.868E-07  0.868E-07
   7.721  0.230E-09  0.115E-09  0.115E-09
   7.723  0.122E-06  0.610E-07  0.610E-07
   7.725  0.440E-04  0.220E-04  0.220E-04
   7.727  0.222E-02  0.111E-02  0.111E-02
   7.729  0.158E-01  0.788E-02  0.788E-02
   7.731  0.158E-01  0.789E-02  0.789E-02
   7.733  0.237E-02  0.119E-02  0.119E-02
   7.735  0.867E-02  0.434E-02  0.434E-02
   7.737  0.117E+00  0.584E-01  0.584E-01
   7.739  0.348E+00  0.174E+00  0.174E+00
   7.741  0.527E+00  0.264E+00  0.264E+00
   7.743  0.706E+00  0.353E+00  0.353E+00
   7.745  0.605E+00  0.302E+00  0.302E+00
   7.747  0.274E+00  0.137E+00  0.137E+00
   7.749  0.149E+00  0.747E-01  0.747E-01
   7.751  0.151E+00  0.755E-01  0.755E-01
   7.753  0.761E-01  0.381E-01  0.381E-01
   7.755  0.661E-01  0.330E-01  0.330E-01
   7.757  0.767E-01  0.384E-01  0.384E-01
   7.759  0.134E+00  0.671E-01  0.671E-01
   7.761  0.127E+00  0.636E-01  0.636E-01
   7.763  0.203E-01  0.101E-01  0.101E-01
   7.765  0.260E-01  0.130E-01  0.130E-01
   7.767  0.746E-01  0.373E-01  0.373E-01
   7.769  0.394E-01  0.197E-01  0.197E-01
   7.771  0.797E-01  0.399E-01  0.399E-01
   7.773  0.130E+00  0.650E-01  0.650E-01
   7.775  0.612E-01  0.306E-01  0.306E-01
   7.777  0.676E-02  0.338E-02  0.338E-02
   7.779  0.187E-01  0.936E-02  0.936E-02
   7.781  0.705E-01  0.352E-01  0.352E-01
   7.783  0.374E-01  0.187E-01  0.187E-01
   7.785  0.312E-01  0.156E-01  0.156E-01
   7.787  0.893E-01  0.447E-01  0.447E-01
   7.789  0.410E-01  0.205E-01  0.205E-01
   7.791  0.400E-01  0.200E-01  0.200E-01
   7.793  0.686E-01  0.343E-01  0.343E-01
   7.795  0.368E-01  0.184E-01  0.184E-01
   7.797  0.578E-01  0.289E-01  0.289E-01
   7.799  0.741E-01  0.371E-01  0.371E-01
   7.801  0.213E-01  0.107E-01  0.107E-01
   7.803  0.243E-01  0.121E-01  0.121E-01
   7.805  0.949E-01  0.474E-01  0.474E-01
   7.807  0.577E-01  0.289E-01  0.289E-01
   7.809  0.505E-02  0.252E-02  0.252E-02
   7.811  0.196E-03  0.982E-04  0.982E-04
   7.813  0.707E-02  0.354E-02  0.354E-02
   7.815  0.523E-01  0.262E-01  0.262E-01
   7.817  0.672E-01  0.336E-01  0.336E-01
   7.819  0.724E-01  0.362E-01  0.362E-01
   7.821  0.370E-01  0.185E-01  0.185E-01
   7.823  0.410E-02  0.205E-02  0.205E-02
   7.825  0.269E-01  0.135E-01  0.135E-01
   7.827  0.912E-01  0.456E-01  0.456E-01
   7.829  0.420E-01  0.210E-01  0.210E-01
   7.831  0.262E-02  0.131E-02  0.131E-02
   7.833  0.288E-04  0.144E-04  0.144E-04
   7.835  0.582E-04  0.291E-04  0.291E-04
   7.837  0.761E-04  0.380E-04  0.380E-04
   7.839  0.863E-03  0.432E-03  0.432E-03
   7.841  0.262E-01  0.131E-01  0.131E-01
   7.843  0.117E+00  0.587E-01  0.587E-01
   7.845  0.773E-01  0.387E-01  0.387E-01
   7.847  0.765E-02  0.382E-02  0.382E-02
   7.849  0.967E-02  0.484E-02  0.484E-02
   7.851  0.726E-01  0.363E-01  0.363E-01
   7.853  0.745E-01  0.372E-01  0.372E-01
   7.855  0.103E-01  0.517E-02  0.517E-02
   7.857  0.194E-03  0.972E-04  0.972E-04
   7.859  0.569E-06  0.284E-06  0.284E-06
   7.861  0.261E-04  0.131E-04  0.131E-04
   7.863  0.125E-02  0.625E-03  0.625E-03
   7.865  0.816E-02  0.408E-02  0.408E-02
   7.867  0.113E-01  0.567E-02  0.567E-02
   7.869  0.432E-01  0.216E-01  0.216E-01
   7.871  0.576E-01  0.288E-01  0.288E-01
   7.873  0.193E-01  0.966E-02  0.966E-02
   7.875  0.519E-01  0.260E-01  0.260E-01
   7.877  0.524E-01  0.262E-01  0.262E-01
   7.879  0.838E-01  0.419E-01  0.419E-01
   7.881  0.776E-01  0.388E-01  0.388E-01
   7.883  0.204E-01  0.102E-01  0.102E-01
   7.885  0.318E-02  0.159E-02  0.159E-02
   7.887  0.107E-03  0.534E-04  0.534E-04
   7.889  0.507E-06  0.254E-06  0.254E-06
   7.891  0.340E-09  0.170E-09  0.170E-09
   7.893  0.619E-07  0.310E-07  0.310E-07
   7.895  0.387E-04  0.194E-04  0.194E-04
   7.897  0.328E-02  0.164E-02  0.164E-02
   7.899  0.376E-01  0.188E-01  0.188E-01
   7.901  0.583E-01  0.291E-01  0.291E-01
   7.903  0.130E-01  0.648E-02  0.648E-02
   7.905  0.104E-01  0.519E-02  0.519E-02
   7.907  0.220E-01  0.110E-01  0.110E-01
   7.909  0.682E-01  0.341E-01  0.341E-01
   7.911  0.154E+00  0.769E-01  0.769E-01
   7.913  0.524E-01  0.262E-01  0.262E-01
   7.915  0.253E-02  0.126E-02  0.126E-02
   7.917  0.172E-04  0.862E-05  0.862E-05
   7.919  0.166E-07  0.828E-08  0.828E-08
   7.921  0.223E-11  0.111E-11  0.111E-11
   7.923  0.317E-13  0.158E-13  0.158E-13
   7.925  0.486E-09  0.243E-09  0.243E-09
   7.927  0.101E-05  0.504E-06  0.504E-06
   7.929  0.283E-03  0.142E-03  0.142E-03
   7.931  0.108E-01  0.539E-02  0.539E-02
   7.933  0.555E-01  0.277E-01  0.277E-01
   7.935  0.389E-01  0.194E-01  0.194E-01
   7.937  0.779E-02  0.389E-02  0.389E-02
   7.939  0.105E-01  0.525E-02  0.525E-02
   7.941  0.870E-02  0.435E-02  0.435E-02
   7.943  0.604E-01  0.302E-01  0.302E-01
   7.945  0.951E-01  0.476E-01  0.476E-01
   7.947  0.314E-01  0.157E-01  0.157E-01
   7.949  0.507E-01  0.254E-01  0.254E-01
   7.951  0.303E-01  0.152E-01  0.152E-01
   7.953  0.249E-02  0.124E-02  0.124E-02
   7.955  0.276E-04  0.138E-04  0.138E-04
   7.957  0.178E-06  0.888E-07  0.888E-07
   7.959  0.466E-04  0.233E-04  0.233E-04
   7.961  0.255E-02  0.127E-02  0.127E-02
   7.963  0.285E-01  0.143E-01  0.143E-01
   7.965  0.850E-01  0.425E-01  0.425E-01
   7.967  0.100E+00  0.501E-01  0.501E-01
   7.969  0.118E+00  0.590E-01  0.590E-01
   7.971  0.751E-01  0.376E-01  0.376E-01
   7.973  0.300E-01  0.150E-01  0.150E-01
   7.975  0.634E-01  0.317E-01  0.317E-01
   7.977  0.330E-01  0.165E-01  0.165E-01
   7.979  0.839E-01  0.420E-01  0.420E-01
   7.981  0.138E+00  0.689E-01  0.689E-01
   7.983  0.382E-01  0.191E-01  0.191E-01
   7.985  0.218E-02  0.109E-02  0.109E-02
   7.987  0.203E-01  0.102E-01  0.102E-01
   7.989  0.103E+00  0.514E-01  0.514E-01
   7.991  0.781E-01  0.391E-01  0.391E-01
   7.993  0.173E-01  0.864E-02  0.864E-02
   7.995  0.405E-01  0.202E-01  0.202E-01
   7.997  0.264E-01  0.132E-01  0.132E-01
   7.999  0.234E-02  0.117E-02  0.117E-02
   8.001  0.280E-04  0.140E-04  0.140E-04
   8.003  0.602E-05  0.301E-05  0.301E-05
   8.005  0.106E-02  0.531E-03  0.531E-03
   8.007  0.281E-01  0.141E-01  0.141E-01
   8.009  0.117E+00  0.587E-01  0.587E-01
   8.011  0.798E-01  0.399E-01  0.399E-01
   8.013  0.172E-01  0.862E-02  0.862E-02
   8.015  0.421E-01  0.210E-01  0.210E-01
   8.017  0.715E-01  0.357E-01  0.357E-01
   8.019  0.105E+00  0.527E-01  0.527E-01
   8.021  0.809E-01  0.404E-01  0.404E-01
   8.023  0.978E-02  0.489E-02  0.489E-02
   8.025  0.162E-03  0.808E-04  0.808E-04
   8.027  0.446E-04  0.223E-04  0.223E-04
   8.029  0.322E-02  0.161E-02  0.161E-02
   8.031  0.318E-01  0.159E-01  0.159E-01
   8.033  0.476E-01  0.238E-01  0.238E-01
   8.035  0.602E-01  0.301E-01  0.301E-01
   8.037  0.703E-01  0.352E-01  0.352E-01
   8.039  0.202E-01  0.101E-01  0.101E-01
   8.041  0.367E-01  0.184E-01  0.184E-01
   8.043  0.238E-01  0.119E-01  0.119E-01
   8.045  0.581E-02  0.291E-02  0.291E-02
   8.047  0.136E-01  0.682E-02  0.682E-02
   8.049  0.216E-01  0.108E-01  0.108E-01
   8.051  0.564E-01  0.282E-01  0.282E-01
   8.053  0.275E-01  0.137E-01  0.137E-01
   8.055  0.183E-02  0.917E-03  0.917E-03
   8.057  0.112E-02  0.559E-03  0.559E-03
   8.059  0.298E-01  0.149E-01  0.149E-01
   8.061  0.109E+00  0.547E-01  0.547E-01
   8.063  0.545E-01  0.272E-01  0.272E-01
   8.065  0.129E-01  0.644E-02  0.644E-02
   8.067  0.686E-01  0.343E-01  0.343E-01
   8.069  0.864E-01  0.432E-01  0.432E-01
   8.071  0.453E-01  0.227E-01  0.227E-01
   8.073  0.201E-01  0.100E-01  0.100E-01
   8.075  0.444E-01  0.222E-01  0.222E-01
   8.077  0.232E-01  0.116E-01  0.116E-01
   8.079  0.166E-02  0.828E-03  0.828E-03
   8.081  0.160E-04  0.799E-05  0.799E-05
   8.083  0.209E-07  0.104E-07  0.104E-07
   8.085  0.370E-07  0.185E-07  0.185E-07
   8.087  0.170E-04  0.850E-05  0.850E-05
   8.089  0.106E-02  0.528E-03  0.528E-03
   8.091  0.891E-02  0.445E-02  0.445E-02
   8.093  0.129E-01  0.643E-02  0.643E-02
   8.095  0.341E-01  0.171E-01  0.171E-01
   8.097  0.522E-01  0.261E-01  0.261E-01
   8.099  0.128E-01  0.639E-02  0.639E-02
   8.101  0.267E-01  0.133E-01  0.133E-01
   8.103  0.136E+00  0.680E-01  0.680E-01
   8.105  0.209E+00  0.105E+00  0.105E+00
   8.107  0.565E-01  0.283E-01  0.283E-01
   8.109  0.222E-02  0.111E-02  0.111E-02
   8.111  0.123E-04  0.613E-05  0.613E-05
   8.113  0.184E-04  0.921E-05  0.921E-05
   8.115  0.178E-02  0.891E-03  0.891E-03
   8.117  0.233E-01  0.117E-01  0.117E-01
   8.119  0.413E-01  0.207E-01  0.207E-01
   8.121  0.991E-02  0.496E-02  0.496E-02
   8.123  0.442E-03  0.221E-03  0.221E-03
   8.125  0.399E-02  0.200E-02  0.200E-02
   8.127  0.179E-01  0.895E-02  0.895E-02
   8.129  0.118E-01  0.589E-02  0.589E-02
   8.131  0.101E-01  0.507E-02  0.507E-02
   8.133  0.135E-01  0.673E-02  0.673E-02
   8.135  0.170E-01  0.851E-02  0.851E-02
   8.137  0.358E-01  0.179E-01  0.179E-01
   8.139  0.160E-01  0.800E-02  0.800E-02
   8.141  0.528E-01  0.264E-01  0.264E-01
   8.143  0.188E+00  0.941E-01  0.941E-01
   8.145  0.235E+00  0.118E+00  0.118E+00
   8.147  0.109E+00  0.544E-01  0.544E-01
   8.149  0.177E+00  0.886E-01  0.886E-01
   8.151  0.148E+00  0.742E-01  0.742E-01
   8.153  0.259E-01  0.129E-01  0.129E-01
   8.155  0.261E-01  0.131E-01  0.131E-01
   8.157  0.965E-01  0.483E-01  0.483E-01
   8.159  0.724E-01  0.362E-01  0.362E-01
   8.161  0.471E-01  0.235E-01  0.235E-01
   8.163  0.179E-01  0.895E-02  0.895E-02
   8.165  0.280E-02  0.140E-02  0.140E-02
   8.167  0.322E-01  0.161E-01  0.161E-01
   8.169  0.102E+00  0.509E-01  0.509E-01
   8.171  0.904E-01  0.452E-01  0.452E-01
   8.173  0.448E-01  0.224E-01  0.224E-01
   8.175  0.783E-02  0.392E-02  0.392E-02
   8.177  0.230E-03  0.115E-03  0.115E-03
   8.179  0.154E-03  0.770E-04  0.770E-04
   8.181  0.804E-02  0.402E-02  0.402E-02
   8.183  0.608E-01  0.304E-01  0.304E-01
   8.185  0.886E-01  0.443E-01  0.443E-01
   8.187  0.701E-01  0.350E-01  0.350E-01
   8.189  0.106E+00  0.532E-01  0.532E-01
   8.191  0.453E-01  0.226E-01  0.226E-01
   8.193  0.103E-01  0.517E-02  0.517E-02
   8.195  0.669E-01  0.334E-01  0.334E-01
   8.197  0.151E+00  0.753E-01  0.753E-01
   8.199  0.875E-01  0.438E-01  0.438E-01
   8.201  0.758E-01  0.379E-01  0.379E-01
   8.203  0.118E+00  0.590E-01  0.590E-01
   8.205  0.646E-01  0.323E-01  0.323E-01
   8.207  0.381E-01  0.190E-01  0.190E-01
   8.209  0.340E-01  0.170E-01  0.170E-01
   8.211  0.778E-02  0.389E-02  0.389E-02
   8.213  0.274E-03  0.137E-03  0.137E-03
   8.215  0.147E-02  0.737E-03  0.737E-03
   8.217  0.116E-01  0.581E-02  0.581E-02
   8.219  0.125E-01  0.624E-02  0.624E-02
   8.221  0.662E-02  0.331E-02  0.331E-02
   8.223  0.510E-01  0.255E-01  0.255E-01
   8.225  0.763E-01  0.382E-01  0.382E-01
   8.227  0.436E-01  0.218E-01  0.218E-01
   8.229  0.340E-01  0.170E-01  0.170E-01
   8.231  0.549E-02  0.274E-02  0.274E-02
   8.233  0.149E-01  0.744E-02  0.744E-02
   8.235  0.102E+00  0.512E-01  0.512E-01
   8.237  0.980E-01  0.490E-01  0.490E-01
   8.239  0.206E-01  0.103E-01  0.103E-01
   8.241  0.388E-01  0.194E-01  0.194E-01
   8.243  0.572E-01  0.286E-01  0.286E-01
   8.245  0.120E+00  0.601E-01  0.601E-01
   8.247  0.134E+00  0.669E-01  0.669E-01
   8.249  0.145E+00  0.727E-01  0.727E-01
   8.251  0.111E+00  0.554E-01  0.554E-01
   8.253  0.325E-01  0.163E-01  0.163E-01
   8.255  0.397E-01  0.198E-01  0.198E-01
   8.257  0.112E-01  0.558E-02  0.558E-02
   8.259  0.428E-03  0.214E-03  0.214E-03
   8.261  0.222E-05  0.111E-05  0.111E-05
   8.263  0.156E-08  0.781E-09  0.781E-09
   8.265  0.148E-12  0.742E-13  0.742E-13
   8.267  0.117E-13  0.585E-14  0.585E-14
   8.269  0.250E-09  0.125E-09  0.125E-09
   8.271  0.734E-06  0.367E-06  0.367E-06
   8.273  0.296E-03  0.148E-03  0.148E-03
   8.275  0.164E-01  0.819E-02  0.819E-02
   8.277  0.124E+00  0.621E-01  0.621E-01
   8.279  0.129E+00  0.645E-01  0.645E-01
   8.281  0.217E-01  0.108E-01  0.108E-01
   8.283  0.622E-01  0.311E-01  0.311E-01
   8.285  0.155E+00  0.773E-01  0.773E-01
   8.287  0.530E-01  0.265E-01  0.265E-01
   8.289  0.249E-02  0.125E-02  0.125E-02
   8.291  0.554E-03  0.277E-03  0.277E-03
   8.293  0.216E-01  0.108E-01  0.108E-01
   8.295  0.117E+00  0.587E-01  0.587E-01
   8.297  0.863E-01  0.432E-01  0.432E-01
   8.299  0.870E-02  0.435E-02  0.435E-02
   8.301  0.366E-02  0.183E-02  0.183E-02
   8.303  0.162E-01  0.812E-02  0.812E-02
   8.305  0.205E-01  0.103E-01  0.103E-01
   8.307  0.701E-01  0.350E-01  0.350E-01
   8.309  0.161E+00  0.806E-01  0.806E-01
   8.311  0.127E+00  0.633E-01  0.633E-01
   8.313  0.200E-01  0.100E-01  0.100E-01
   8.315  0.931E-03  0.465E-03  0.465E-03
   8.317  0.101E-01  0.503E-02  0.503E-02
   8.319  0.385E-01  0.192E-01  0.192E-01
   8.321  0.199E-01  0.997E-02  0.997E-02
   8.323  0.140E-02  0.699E-03  0.699E-03
   8.325  0.175E-03  0.875E-04  0.875E-04
   8.327  0.442E-02  0.221E-02  0.221E-02
   8.329  0.164E-01  0.818E-02  0.818E-02
   8.331  0.104E-01  0.519E-02  0.519E-02
   8.333  0.450E-01  0.225E-01  0.225E-01
   8.335  0.124E+00  0.618E-01  0.618E-01
   8.337  0.689E-01  0.345E-01  0.345E-01
   8.339  0.747E-01  0.373E-01  0.373E-01
   8.341  0.576E-01  0.288E-01  0.288E-01
   8.343  0.100E+00  0.500E-01  0.500E-01
   8.345  0.213E+00  0.106E+00  0.106E+00
   8.347  0.108E+00  0.541E-01  0.541E-01
   8.349  0.995E-02  0.498E-02  0.498E-02
   8.351  0.137E-03  0.685E-04  0.685E-04
   8.353  0.236E-03  0.118E-03  0.118E-03
   8.355  0.802E-02  0.401E-02  0.401E-02
   8.357  0.369E-01  0.185E-01  0.185E-01
   8.359  0.232E-01  0.116E-01  0.116E-01
   8.361  0.915E-02  0.457E-02  0.457E-02
   8.363  0.428E-01  0.214E-01  0.214E-01
   8.365  0.551E-01  0.275E-01  0.275E-01
   8.367  0.485E-01  0.243E-01  0.243E-01
   8.369  0.431E-01  0.216E-01  0.216E-01
   8.371  0.685E-02  0.342E-02  0.342E-02
   8.373  0.149E-03  0.744E-04  0.744E-04
   8.375  0.459E-05  0.230E-05  0.230E-05
   8.377  0.917E-03  0.458E-03  0.458E-03
   8.379  0.274E-01  0.137E-01  0.137E-01
   8.381  0.113E+00  0.565E-01  0.565E-01
   8.383  0.107E+00  0.535E-01  0.535E-01
   8.385  0.180E+00  0.900E-01  0.900E-01
   8.387  0.127E+00  0.635E-01  0.635E-01
   8.389  0.209E-01  0.104E-01  0.104E-01
   8.391  0.143E-02  0.716E-03  0.716E-03
   8.393  0.200E-01  0.100E-01  0.100E-01
   8.395  0.121E+00  0.605E-01  0.605E-01
   8.397  0.106E+00  0.528E-01  0.528E-01
   8.399  0.645E-01  0.322E-01  0.322E-01
   8.401  0.872E-01  0.436E-01  0.436E-01
   8.403  0.312E-01  0.156E-01  0.156E-01
   8.405  0.822E-02  0.411E-02  0.411E-02
   8.407  0.188E-01  0.938E-02  0.938E-02
   8.409  0.925E-02  0.463E-02  0.463E-02
   8.411  0.267E-01  0.134E-01  0.134E-01
   8.413  0.605E-01  0.303E-01  0.303E-01
   8.415  0.196E-01  0.980E-02  0.980E-02
   8.417  0.129E-01  0.646E-02  0.646E-02
   8.419  0.115E+00  0.577E-01  0.577E-01
   8.421  0.212E+00  0.106E+00  0.106E+00
   8.423  0.118E+00  0.588E-01  0.588E-01
   8.425  0.333E-01  0.166E-01  0.166E-01
   8.427  0.298E-01  0.149E-01  0.149E-01
   8.429  0.227E-01  0.113E-01  0.113E-01
   8.431  0.398E-01  0.199E-01  0.199E-01
   8.433  0.713E-01  0.357E-01  0.357E-01
   8.435  0.128E+00  0.641E-01  0.641E-01
   8.437  0.130E+00  0.652E-01  0.652E-01
   8.439  0.410E-01  0.205E-01  0.205E-01
   8.441  0.133E-01  0.666E-02  0.666E-02
   8.443  0.704E-01  0.352E-01  0.352E-01
   8.445  0.192E+00  0.959E-01  0.959E-01
   8.447  0.106E+00  0.532E-01  0.532E-01
   8.449  0.105E-01  0.526E-02  0.526E-02
   8.451  0.274E-03  0.137E-03  0.137E-03
   8.453  0.437E-02  0.218E-02  0.218E-02
   8.455  0.266E-01  0.133E-01  0.133E-01
   8.457  0.226E-01  0.113E-01  0.113E-01
   8.459  0.283E-01  0.141E-01  0.141E-01
   8.461  0.121E+00  0.607E-01  0.607E-01
   8.463  0.770E-01  0.385E-01  0.385E-01
   8.465  0.739E-02  0.369E-02  0.369E-02
   8.467  0.121E-01  0.605E-02  0.605E-02
   8.469  0.376E-01  0.188E-01  0.188E-01
   8.471  0.354E-01  0.177E-01  0.177E-01
   8.473  0.731E-02  0.365E-02  0.365E-02
   8.475  0.229E-03  0.114E-03  0.114E-03
   8.477  0.932E-05  0.466E-05  0.466E-05
   8.479  0.835E-03  0.418E-03  0.418E-03
   8.481  0.129E-01  0.647E-02  0.647E-02
   8.483  0.825E-01  0.412E-01  0.412E-01
   8.485  0.345E+00  0.173E+00  0.173E+00
   8.487  0.361E+00  0.181E+00  0.181E+00
   8.489  0.223E+00  0.111E+00  0.111E+00
   8.491  0.173E+00  0.867E-01  0.867E-01
   8.493  0.225E+00  0.113E+00  0.113E+00
   8.495  0.239E+00  0.119E+00  0.119E+00
   8.497  0.165E+00  0.823E-01  0.823E-01
   8.499  0.103E+00  0.515E-01  0.515E-01
   8.501  0.165E+00  0.825E-01  0.825E-01
   8.503  0.234E+00  0.117E+00  0.117E+00
   8.505  0.143E+00  0.716E-01  0.716E-01
   8.507  0.829E-01  0.414E-01  0.414E-01
   8.509  0.716E-01  0.358E-01  0.358E-01
   8.511  0.120E+00  0.598E-01  0.598E-01
   8.513  0.457E-01  0.229E-01  0.229E-01
   8.515  0.265E-01  0.132E-01  0.132E-01
   8.517  0.762E-01  0.381E-01  0.381E-01
   8.519  0.464E-01  0.232E-01  0.232E-01
   8.521  0.992E-01  0.496E-01  0.496E-01
   8.523  0.906E-01  0.453E-01  0.453E-01
   8.525  0.116E-01  0.582E-02  0.582E-02
   8.527  0.826E-02  0.413E-02  0.413E-02
   8.529  0.630E-01  0.315E-01  0.315E-01
   8.531  0.172E+00  0.861E-01  0.861E-01
   8.533  0.270E+00  0.135E+00  0.135E+00
   8.535  0.179E+00  0.895E-01  0.895E-01
   8.537  0.603E-01  0.302E-01  0.302E-01
   8.539  0.161E+00  0.804E-01  0.804E-01
   8.541  0.129E+00  0.645E-01  0.645E-01
   8.543  0.123E+00  0.615E-01  0.615E-01
   8.545  0.215E+00  0.107E+00  0.107E+00
   8.547  0.231E+00  0.115E+00  0.115E+00
   8.549  0.203E+00  0.102E+00  0.102E+00
   8.551  0.878E-01  0.439E-01  0.439E-01
   8.553  0.967E-01  0.483E-01  0.483E-01
   8.555  0.890E-01  0.445E-01  0.445E-01
   8.557  0.806E-01  0.403E-01  0.403E-01
   8.559  0.368E-01  0.184E-01  0.184E-01
   8.561  0.992E-01  0.496E-01  0.496E-01
   8.563  0.169E+00  0.844E-01  0.844E-01
   8.565  0.113E+00  0.564E-01  0.564E-01
   8.567  0.129E+00  0.646E-01  0.646E-01
   8.569  0.807E-01  0.403E-01  0.403E-01
   8.571  0.984E-01  0.492E-01  0.492E-01
   8.573  0.696E-01  0.348E-01  0.348E-01
   8.575  0.469E-01  0.235E-01  0.235E-01
   8.577  0.246E+00  0.123E+00  0.123E+00
   8.579  0.317E+00  0.158E+00  0.158E+00
   8.581  0.153E+00  0.767E-01  0.767E-01
   8.583  0.288E+00  0.144E+00  0.144E+00
   8.585  0.310E+00  0.155E+00  0.155E+00
   8.587  0.113E+00  0.565E-01  0.565E-01
   8.589  0.684E-01  0.342E-01  0.342E-01
   8.591  0.585E-01  0.293E-01  0.293E-01
   8.593  0.133E+00  0.663E-01  0.663E-01
   8.595  0.196E+00  0.980E-01  0.980E-01
   8.597  0.819E-01  0.409E-01  0.409E-01
   8.599  0.178E-01  0.891E-02  0.891E-02
   8.601  0.772E-01  0.386E-01  0.386E-01
   8.603  0.853E-01  0.427E-01  0.427E-01
   8.605  0.133E-01  0.665E-02  0.665E-02
   8.607  0.141E-01  0.706E-02  0.706E-02
   8.609  0.145E+00  0.727E-01  0.727E-01
   8.611  0.583E+00  0.291E+00  0.291E+00
   8.613  0.642E+00  0.321E+00  0.321E+00
   8.615  0.360E+00  0.180E+00  0.180E+00
   8.617  0.348E+00  0.174E+00  0.174E+00
   8.619  0.350E+00  0.175E+00  0.175E+00
   8.621  0.484E+00  0.242E+00  0.242E+00
   8.623  0.574E+00  0.287E+00  0.287E+00
   8.625  0.145E+00  0.727E-01  0.727E-01
   8.627  0.105E+00  0.523E-01  0.523E-01
   8.629  0.335E+00  0.167E+00  0.167E+00
   8.631  0.259E+00  0.129E+00  0.129E+00
   8.633  0.150E+00  0.752E-01  0.752E-01
   8.635  0.631E-01  0.315E-01  0.315E-01
   8.637  0.164E+00  0.822E-01  0.822E-01
   8.639  0.183E+00  0.913E-01  0.913E-01
   8.641  0.933E-01  0.467E-01  0.467E-01
   8.643  0.189E+00  0.946E-01  0.946E-01
   8.645  0.391E+00  0.196E+00  0.196E+00
   8.647  0.358E+00  0.179E+00  0.179E+00
   8.649  0.146E+00  0.732E-01  0.732E-01
   8.651  0.439E-01  0.219E-01  0.219E-01
   8.653  0.209E+00  0.105E+00  0.105E+00
   8.655  0.493E+00  0.246E+00  0.246E+00
   8.657  0.559E+00  0.279E+00  0.279E+00
   8.659  0.285E+00  0.142E+00  0.142E+00
   8.661  0.196E+00  0.978E-01  0.978E-01
   8.663  0.730E-01  0.365E-01  0.365E-01
   8.665  0.144E-01  0.719E-02  0.719E-02
   8.667  0.149E+00  0.745E-01  0.745E-01
   8.669  0.346E+00  0.173E+00  0.173E+00
   8.671  0.191E+00  0.954E-01  0.954E-01
   8.673  0.874E-01  0.437E-01  0.437E-01
   8.675  0.213E+00  0.106E+00  0.106E+00
   8.677  0.234E+00  0.117E+00  0.117E+00
   8.679  0.282E+00  0.141E+00  0.141E+00
   8.681  0.462E+00  0.231E+00  0.231E+00
   8.683  0.589E+00  0.295E+00  0.295E+00
   8.685  0.351E+00  0.176E+00  0.176E+00
   8.687  0.102E+00  0.508E-01  0.508E-01
   8.689  0.248E+00  0.124E+00  0.124E+00
   8.691  0.384E+00  0.192E+00  0.192E+00
   8.693  0.189E+00  0.944E-01  0.944E-01
   8.695  0.199E-01  0.996E-02  0.996E-02
   8.697  0.303E-01  0.151E-01  0.151E-01
   8.699  0.207E+00  0.104E+00  0.104E+00
   8.701  0.519E+00  0.259E+00  0.259E+00
   8.703  0.548E+00  0.274E+00  0.274E+00
   8.705  0.592E+00  0.296E+00  0.296E+00
   8.707  0.213E+00  0.107E+00  0.107E+00
   8.709  0.397E+00  0.198E+00  0.198E+00
   8.711  0.429E+00  0.215E+00  0.215E+00
   8.713  0.917E-01  0.459E-01  0.459E-01
   8.715  0.345E+00  0.172E+00  0.172E+00
   8.717  0.101E+01  0.504E+00  0.504E+00
   8.719  0.827E+00  0.414E+00  0.414E+00
   8.721  0.110E+01  0.551E+00  0.551E+00
   8.723  0.952E+00  0.476E+00  0.476E+00
   8.725  0.259E+00  0.129E+00  0.129E+00
   8.727  0.464E-01  0.232E-01  0.232E-01
   8.729  0.381E-02  0.191E-02  0.191E-02
   8.731  0.850E-02  0.425E-02  0.425E-02
   8.733  0.324E-01  0.162E-01  0.162E-01
   8.735  0.170E-01  0.850E-02  0.850E-02
   8.737  0.955E-02  0.478E-02  0.478E-02
   8.739  0.500E-01  0.250E-01  0.250E-01
   8.741  0.411E-01  0.206E-01  0.206E-01
   8.743  0.591E-02  0.296E-02  0.296E-02
   8.745  0.187E-01  0.933E-02  0.933E-02
   8.747  0.392E-01  0.196E-01  0.196E-01
   8.749  0.174E-01  0.870E-02  0.870E-02
   8.751  0.288E-01  0.144E-01  0.144E-01
   8.753  0.480E-01  0.240E-01  0.240E-01
   8.755  0.933E-01  0.466E-01  0.466E-01
   8.757  0.679E-01  0.339E-01  0.339E-01
   8.759  0.127E-01  0.635E-02  0.635E-02
   8.761  0.336E-01  0.168E-01  0.168E-01
   8.763  0.353E-01  0.177E-01  0.177E-01
   8.765  0.472E-01  0.236E-01  0.236E-01
   8.767  0.638E-01  0.319E-01  0.319E-01
   8.769  0.139E-01  0.697E-02  0.697E-02
   8.771  0.523E-02  0.261E-02  0.261E-02
   8.773  0.232E-01  0.116E-01  0.116E-01
   8.775  0.288E-01  0.144E-01  0.144E-01
   8.777  0.634E-01  0.317E-01  0.317E-01
   8.779  0.374E-01  0.187E-01  0.187E-01
   8.781  0.309E-02  0.154E-02  0.154E-02
   8.783  0.353E-04  0.176E-04  0.176E-04
   8.785  0.639E-04  0.319E-04  0.319E-04
   8.787  0.167E-02  0.835E-03  0.835E-03
   8.789  0.591E-02  0.295E-02  0.295E-02
   8.791  0.288E-02  0.144E-02  0.144E-02
   8.793  0.269E-02  0.134E-02  0.134E-02
   8.795  0.168E-01  0.840E-02  0.840E-02
   8.797  0.152E-01  0.762E-02  0.762E-02
   8.799  0.188E-02  0.941E-03  0.941E-03
   8.801  0.154E-02  0.768E-03  0.768E-03
   8.803  0.331E-01  0.166E-01  0.166E-01
   8.805  0.990E-01  0.495E-01  0.495E-01
   8.807  0.402E-01  0.201E-01  0.201E-01
   8.809  0.222E-02  0.111E-02  0.111E-02
   8.811  0.543E-04  0.272E-04  0.272E-04
   8.813  0.138E-02  0.688E-03  0.688E-03
   8.815  0.124E-01  0.618E-02  0.618E-02
   8.817  0.477E-01  0.238E-01  0.238E-01
   8.819  0.574E-01  0.287E-01  0.287E-01
   8.821  0.516E-01  0.258E-01  0.258E-01
   8.823  0.231E-01  0.116E-01  0.116E-01
   8.825  0.179E-02  0.895E-03  0.895E-03
   8.827  0.194E-04  0.972E-05  0.972E-05
   8.829  0.397E-05  0.199E-05  0.199E-05
   8.831  0.486E-03  0.243E-03  0.243E-03
   8.833  0.811E-02  0.405E-02  0.405E-02
   8.835  0.183E-01  0.915E-02  0.915E-02
   8.837  0.559E-02  0.280E-02  0.280E-02
   8.839  0.436E-03  0.218E-03  0.218E-03
   8.841  0.316E-02  0.158E-02  0.158E-02
   8.843  0.113E-01  0.565E-02  0.565E-02
   8.845  0.147E-01  0.733E-02  0.733E-02
   8.847  0.473E-02  0.237E-02  0.237E-02
   8.849  0.151E-01  0.756E-02  0.756E-02
   8.851  0.409E-01  0.205E-01  0.205E-01
   8.853  0.151E-01  0.757E-02  0.757E-02
   8.855  0.793E-03  0.397E-03  0.397E-03
   8.857  0.273E-02  0.136E-02  0.136E-02
   8.859  0.291E-01  0.145E-01  0.145E-01
   8.861  0.420E-01  0.210E-01  0.210E-01
   8.863  0.100E-01  0.502E-02  0.502E-02
   8.865  0.151E-01  0.753E-02  0.753E-02
   8.867  0.168E-01  0.841E-02  0.841E-02
   8.869  0.986E-02  0.493E-02  0.493E-02
   8.871  0.148E-01  0.742E-02  0.742E-02
   8.873  0.424E-02  0.212E-02  0.212E-02
   8.875  0.172E-03  0.861E-04  0.861E-04
   8.877  0.980E-06  0.490E-06  0.490E-06
   8.879  0.770E-09  0.385E-09  0.385E-09
   8.881  0.178E-10  0.892E-11  0.892E-11
   8.883  0.702E-07  0.351E-07  0.351E-07
   8.885  0.375E-04  0.188E-04  0.188E-04
   8.887  0.272E-02  0.136E-02  0.136E-02
   8.889  0.266E-01  0.133E-01  0.133E-01
   8.891  0.353E-01  0.176E-01  0.176E-01
   8.893  0.639E-02  0.319E-02  0.319E-02
   8.895  0.274E-02  0.137E-02  0.137E-02
   8.897  0.269E-01  0.134E-01  0.134E-01
   8.899  0.794E-01  0.397E-01  0.397E-01
   8.901  0.716E-01  0.358E-01  0.358E-01
   8.903  0.341E-01  0.171E-01  0.171E-01
   8.905  0.451E-01  0.226E-01  0.226E-01
   8.907  0.187E-01  0.936E-02  0.936E-02
   8.909  0.108E-02  0.538E-03  0.538E-03
   8.911  0.838E-05  0.419E-05  0.419E-05
   8.913  0.883E-08  0.441E-08  0.441E-08
   8.915  0.946E-11  0.473E-11  0.473E-11
   8.917  0.251E-07  0.126E-07  0.126E-07
   8.919  0.105E-04  0.525E-05  0.525E-05
   8.921  0.614E-03  0.307E-03  0.307E-03
   8.923  0.534E-02  0.267E-02  0.267E-02
   8.925  0.787E-02  0.394E-02  0.394E-02
   8.927  0.221E-02  0.110E-02  0.110E-02
   8.929  0.199E-03  0.994E-04  0.994E-04
   8.931  0.362E-02  0.181E-02  0.181E-02
   8.933  0.203E-01  0.101E-01  0.101E-01
   8.935  0.153E-01  0.767E-02  0.767E-02
   8.937  0.157E-02  0.787E-03  0.787E-03
   8.939  0.218E-04  0.109E-04  0.109E-04
   8.941  0.411E-07  0.205E-07  0.205E-07
   8.943  0.134E-06  0.671E-07  0.671E-07
   8.945  0.409E-04  0.205E-04  0.205E-04
   8.947  0.242E-02  0.121E-02  0.121E-02
   8.949  0.302E-01  0.151E-01  0.151E-01
   8.951  0.794E-01  0.397E-01  0.397E-01
   8.953  0.442E-01  0.221E-01  0.221E-01
   8.955  0.462E-02  0.231E-02  0.231E-02
   8.957  0.759E-04  0.379E-04  0.379E-04
   8.959  0.177E-06  0.886E-07  0.886E-07
   8.961  0.827E-10  0.413E-10  0.413E-10
   8.963  0.845E-07  0.423E-07  0.423E-07
   8.965  0.375E-04  0.187E-04  0.187E-04
   8.967  0.225E-02  0.112E-02  0.112E-02
   8.969  0.183E-01  0.916E-02  0.916E-02
   8.971  0.214E-01  0.107E-01  0.107E-01
   8.973  0.685E-02  0.342E-02  0.342E-02
   8.975  0.419E-02  0.209E-02  0.209E-02
   8.977  0.232E-01  0.116E-01  0.116E-01
   8.979  0.342E-01  0.171E-01  0.171E-01
   8.981  0.698E-02  0.349E-02  0.349E-02
   8.983  0.526E-02  0.263E-02  0.263E-02
   8.985  0.312E-01  0.156E-01  0.156E-01
   8.987  0.260E-01  0.130E-01  0.130E-01
   8.989  0.301E-02  0.150E-02  0.150E-02
   8.991  0.106E-02  0.532E-03  0.532E-03
   8.993  0.233E-02  0.117E-02  0.117E-02
   8.995  0.883E-03  0.441E-03  0.441E-03
   8.997  0.156E-02  0.781E-03  0.781E-03
   8.999  0.207E-01  0.103E-01  0.103E-01
   9.001  0.400E-01  0.200E-01  0.200E-01
   9.003  0.332E-01  0.166E-01  0.166E-01
   9.005  0.430E-01  0.215E-01  0.215E-01
   9.007  0.288E-01  0.144E-01  0.144E-01
   9.009  0.231E-01  0.116E-01  0.116E-01
   9.011  0.365E-02  0.183E-02  0.183E-02
   9.013  0.815E-04  0.407E-04  0.407E-04
   9.015  0.684E-04  0.342E-04  0.342E-04
   9.017  0.270E-03  0.135E-03  0.135E-03
   9.019  0.157E-03  0.787E-04  0.787E-04
   9.021  0.928E-04  0.464E-04  0.464E-04
   9.023  0.135E-03  0.675E-04  0.675E-04
   9.025  0.354E-03  0.177E-03  0.177E-03
   9.027  0.254E-03  0.127E-03  0.127E-03
   9.029  0.112E-03  0.562E-04  0.562E-04
   9.031  0.668E-03  0.334E-03  0.334E-03
   9.033  0.689E-03  0.345E-03  0.345E-03
   9.035  0.965E-04  0.483E-04  0.483E-04
   9.037  0.358E-04  0.179E-04  0.179E-04
   9.039  0.621E-03  0.311E-03  0.311E-03
   9.041  0.154E-02  0.769E-03  0.769E-03
   9.043  0.575E-03  0.288E-03  0.288E-03
   9.045  0.317E-02  0.159E-02  0.159E-02
   9.047  0.230E-01  0.115E-01  0.115E-01
   9.049  0.371E-01  0.185E-01  0.185E-01
   9.051  0.410E-01  0.205E-01  0.205E-01
   9.053  0.136E-01  0.678E-02  0.678E-02
   9.055  0.864E-03  0.432E-03  0.432E-03
   9.057  0.736E-03  0.368E-03  0.368E-03
   9.059  0.151E-01  0.754E-02  0.754E-02
   9.061  0.425E-01  0.213E-01  0.213E-01
   9.063  0.165E-01  0.827E-02  0.827E-02
   9.065  0.557E-02  0.279E-02  0.279E-02
   9.067  0.255E-01  0.128E-01  0.128E-01
   9.069  0.306E-01  0.153E-01  0.153E-01
   9.071  0.659E-02  0.329E-02  0.329E-02
   9.073  0.172E-01  0.862E-02  0.862E-02
   9.075  0.344E-01  0.172E-01  0.172E-01
   9.077  0.936E-02  0.468E-02  0.468E-02
   9.079  0.556E-03  0.278E-03  0.278E-03
   9.081  0.261E-02  0.130E-02  0.130E-02
   9.083  0.435E-02  0.217E-02  0.217E-02
   9.085  0.121E-02  0.607E-03  0.607E-03
   9.087  0.696E-02  0.348E-02  0.348E-02
   9.089  0.279E-01  0.139E-01  0.139E-01
   9.091  0.152E-01  0.759E-02  0.759E-02
   9.093  0.112E-02  0.559E-03  0.559E-03
   9.095  0.115E-04  0.576E-05  0.576E-05
   9.097  0.925E-04  0.463E-04  0.463E-04
   9.099  0.400E-02  0.200E-02  0.200E-02
   9.101  0.289E-01  0.145E-01  0.145E-01
   9.103  0.327E-01  0.164E-01  0.164E-01
   9.105  0.541E-02  0.270E-02  0.270E-02
   9.107  0.125E-03  0.625E-04  0.625E-04
   9.109  0.397E-06  0.198E-06  0.198E-06
   9.111  0.232E-09  0.116E-09  0.116E-09
   9.113  0.184E-06  0.918E-07  0.918E-07
   9.115  0.759E-04  0.379E-04  0.379E-04
   9.117  0.425E-02  0.212E-02  0.212E-02
   9.119  0.325E-01  0.162E-01  0.162E-01
   9.121  0.371E-01  0.186E-01  0.186E-01
   9.123  0.116E-01  0.579E-02  0.579E-02
   9.125  0.167E-02  0.833E-03  0.833E-03
   9.127  0.658E-04  0.329E-04  0.329E-04
   9.129  0.151E-02  0.756E-03  0.756E-03
   9.131  0.177E-01  0.887E-02  0.887E-02
   9.133  0.282E-01  0.141E-01  0.141E-01
   9.135  0.606E-02  0.303E-02  0.303E-02
   9.137  0.176E-03  0.881E-04  0.881E-04
   9.139  0.725E-06  0.362E-06  0.362E-06
   9.141  0.137E-04  0.684E-05  0.684E-05
   9.143  0.824E-03  0.412E-03  0.412E-03
   9.145  0.671E-02  0.336E-02  0.336E-02
   9.147  0.741E-02  0.370E-02  0.370E-02
   9.149  0.113E-02  0.563E-03  0.563E-03
   9.151  0.168E-02  0.839E-03  0.839E-03
   9.153  0.188E-01  0.940E-02  0.940E-02
   9.155  0.321E-01  0.161E-01  0.161E-01
   9.157  0.301E-01  0.150E-01  0.150E-01
   9.159  0.230E-01  0.115E-01  0.115E-01
   9.161  0.293E-02  0.146E-02  0.146E-02
   9.163  0.101E-02  0.507E-03  0.507E-03
   9.165  0.152E-01  0.758E-02  0.758E-02
   9.167  0.323E-01  0.162E-01  0.162E-01
   9.169  0.104E-01  0.520E-02  0.520E-02
   9.171  0.865E-02  0.432E-02  0.432E-02
   9.173  0.906E-02  0.453E-02  0.453E-02
   9.175  0.119E-01  0.597E-02  0.597E-02
   9.177  0.322E-01  0.161E-01  0.161E-01
   9.179  0.269E-01  0.134E-01  0.134E-01
   9.181  0.407E-01  0.203E-01  0.203E-01
   9.183  0.151E-01  0.754E-02  0.754E-02
   9.185  0.769E-03  0.385E-03  0.385E-03
   9.187  0.531E-05  0.266E-05  0.266E-05
   9.189  0.496E-08  0.248E-08  0.248E-08
   9.191  0.638E-11  0.319E-11  0.319E-11
   9.193  0.226E-07  0.113E-07  0.113E-07
   9.195  0.120E-04  0.601E-05  0.601E-05
   9.197  0.865E-03  0.433E-03  0.433E-03
   9.199  0.843E-02  0.421E-02  0.421E-02
   9.201  0.111E-01  0.556E-02  0.556E-02
   9.203  0.288E-02  0.144E-02  0.144E-02
   9.205  0.134E-01  0.672E-02  0.672E-02
   9.207  0.271E-01  0.135E-01  0.135E-01
   9.209  0.740E-02  0.370E-02  0.370E-02
   9.211  0.274E-03  0.137E-03  0.137E-03
   9.213  0.137E-05  0.687E-06  0.687E-06
   9.215  0.333E-08  0.167E-08  0.167E-08
   9.217  0.292E-05  0.146E-05  0.146E-05
   9.219  0.482E-03  0.241E-03  0.241E-03
   9.221  0.108E-01  0.538E-02  0.538E-02
   9.223  0.325E-01  0.162E-01  0.162E-01
   9.225  0.133E-01  0.664E-02  0.664E-02
   9.227  0.114E-02  0.570E-03  0.570E-03
   9.229  0.659E-02  0.329E-02  0.329E-02
   9.231  0.144E-01  0.721E-02  0.721E-02
   9.233  0.428E-02  0.214E-02  0.214E-02
   9.235  0.172E-03  0.859E-04  0.859E-04
   9.237  0.703E-05  0.351E-05  0.351E-05
   9.239  0.866E-03  0.433E-03  0.433E-03
   9.241  0.178E-01  0.892E-02  0.892E-02
   9.243  0.572E-01  0.286E-01  0.286E-01
   9.245  0.309E-01  0.154E-01  0.154E-01
   9.247  0.283E-02  0.141E-02  0.141E-02
   9.249  0.410E-04  0.205E-04  0.205E-04
   9.251  0.137E-06  0.684E-07  0.684E-07
   9.253  0.258E-04  0.129E-04  0.129E-04
   9.255  0.189E-02  0.946E-03  0.946E-03
   9.257  0.217E-01  0.108E-01  0.108E-01
   9.259  0.474E-01  0.237E-01  0.237E-01
   9.261  0.249E-01  0.124E-01  0.124E-01
   9.263  0.172E-01  0.862E-02  0.862E-02
   9.265  0.961E-02  0.481E-02  0.481E-02
   9.267  0.286E-02  0.143E-02  0.143E-02
   9.269  0.214E-01  0.107E-01  0.107E-01
   9.271  0.300E-01  0.150E-01  0.150E-01
   9.273  0.570E-02  0.285E-02  0.285E-02
   9.275  0.147E-03  0.733E-04  0.733E-04
   9.277  0.510E-06  0.255E-06  0.255E-06
   9.279  0.240E-09  0.120E-09  0.120E-09
   9.281  0.153E-13  0.766E-14  0.766E-14
   9.283  0.132E-18  0.661E-19  0.661E-19
   9.285  0.000E+00  0.000E+00  0.000E+00
   9.287  0.130E-15  0.648E-16  0.648E-16
   9.289  0.434E-11  0.217E-11  0.217E-11
   9.291  0.197E-07  0.984E-08  0.984E-08
   9.293  0.121E-04  0.604E-05  0.604E-05
   9.295  0.100E-02  0.501E-03  0.501E-03
   9.297  0.113E-01  0.564E-02  0.564E-02
   9.299  0.174E-01  0.870E-02  0.870E-02
   9.301  0.112E-01  0.561E-02  0.561E-02
   9.303  0.306E-01  0.153E-01  0.153E-01
   9.305  0.190E-01  0.949E-02  0.949E-02
   9.307  0.175E-01  0.876E-02  0.876E-02
   9.309  0.137E-01  0.685E-02  0.685E-02
   9.311  0.155E-02  0.775E-03  0.775E-03
   9.313  0.458E-04  0.229E-04  0.229E-04
   9.315  0.183E-02  0.915E-03  0.915E-03
   9.317  0.210E-01  0.105E-01  0.105E-01
   9.319  0.396E-01  0.198E-01  0.198E-01
   9.321  0.250E-01  0.125E-01  0.125E-01
   9.323  0.581E-02  0.290E-02  0.290E-02
   9.325  0.231E-03  0.116E-03  0.116E-03
   9.327  0.128E-05  0.638E-06  0.638E-06
   9.329  0.633E-06  0.317E-06  0.317E-06
   9.331  0.147E-03  0.735E-04  0.735E-04
   9.333  0.463E-02  0.231E-02  0.231E-02
   9.335  0.197E-01  0.986E-02  0.986E-02
   9.337  0.114E-01  0.569E-02  0.569E-02
   9.339  0.887E-03  0.444E-03  0.444E-03
   9.341  0.954E-05  0.477E-05  0.477E-05
   9.343  0.621E-04  0.310E-04  0.310E-04
   9.345  0.301E-02  0.151E-02  0.151E-02
   9.347  0.198E-01  0.990E-02  0.990E-02
   9.349  0.177E-01  0.883E-02  0.883E-02
   9.351  0.402E-02  0.201E-02  0.201E-02
   9.353  0.122E-01  0.608E-02  0.608E-02
   9.355  0.118E-01  0.588E-02  0.588E-02
   9.357  0.159E-01  0.794E-02  0.794E-02
   9.359  0.222E-01  0.111E-01  0.111E-01
   9.361  0.454E-02  0.227E-02  0.227E-02
   9.363  0.126E-02  0.631E-03  0.631E-03
   9.365  0.167E-01  0.835E-02  0.835E-02
   9.367  0.332E-01  0.166E-01  0.166E-01
   9.369  0.896E-02  0.448E-02  0.448E-02
   9.371  0.130E-02  0.650E-03  0.650E-03
   9.373  0.125E-01  0.626E-02  0.626E-02
   9.375  0.217E-01  0.109E-01  0.109E-01
   9.377  0.513E-02  0.256E-02  0.256E-02
   9.379  0.936E-03  0.468E-03  0.468E-03
   9.381  0.774E-02  0.387E-02  0.387E-02
   9.383  0.105E-01  0.525E-02  0.525E-02
   9.385  0.192E-02  0.962E-03  0.962E-03
   9.387  0.478E-04  0.239E-04  0.239E-04
   9.389  0.121E-04  0.605E-05  0.605E-05
   9.391  0.771E-03  0.385E-03  0.385E-03
   9.393  0.673E-02  0.337E-02  0.337E-02
   9.395  0.796E-02  0.398E-02  0.398E-02
   9.397  0.128E-02  0.639E-03  0.639E-03
   9.399  0.406E-03  0.203E-03  0.203E-03
   9.401  0.651E-02  0.325E-02  0.325E-02
   9.403  0.152E-01  0.759E-02  0.759E-02
   9.405  0.479E-02  0.239E-02  0.239E-02
   9.407  0.205E-03  0.102E-03  0.102E-03
   9.409  0.112E-03  0.559E-04  0.559E-04
   9.411  0.492E-02  0.246E-02  0.246E-02
   9.413  0.326E-01  0.163E-01  0.163E-01
   9.415  0.450E-01  0.225E-01  0.225E-01
   9.417  0.203E-01  0.101E-01  0.101E-01
   9.419  0.142E-01  0.709E-02  0.709E-02
   9.421  0.129E-01  0.646E-02  0.646E-02
   9.423  0.601E-02  0.301E-02  0.301E-02
   9.425  0.825E-02  0.413E-02  0.413E-02
   9.427  0.471E-02  0.236E-02  0.236E-02
   9.429  0.752E-03  0.376E-03  0.376E-03
   9.431  0.266E-02  0.133E-02  0.133E-02
   9.433  0.712E-02  0.356E-02  0.356E-02
   9.435  0.259E-02  0.130E-02  0.130E-02
   9.437  0.128E-03  0.638E-04  0.638E-04
   9.439  0.852E-06  0.426E-06  0.426E-06
   9.441  0.391E-06  0.195E-06  0.195E-06
   9.443  0.548E-04  0.274E-04  0.274E-04
   9.445  0.107E-02  0.533E-03  0.533E-03
   9.447  0.327E-02  0.163E-02  0.163E-02
   9.449  0.274E-02  0.137E-02  0.137E-02
   9.451  0.837E-03  0.418E-03  0.418E-03
   9.453  0.135E-02  0.676E-03  0.676E-03
   9.455  0.174E-01  0.870E-02  0.870E-02
   9.457  0.434E-01  0.217E-01  0.217E-01
   9.459  0.414E-01  0.207E-01  0.207E-01
   9.461  0.118E-01  0.588E-02  0.588E-02
   9.463  0.126E-02  0.632E-03  0.632E-03
   9.465  0.248E-02  0.124E-02  0.124E-02
   9.467  0.211E-02  0.106E-02  0.106E-02
   9.469  0.166E-02  0.831E-03  0.831E-03
   9.471  0.495E-03  0.247E-03  0.247E-03
   9.473  0.282E-03  0.141E-03  0.141E-03
   9.475  0.107E-03  0.534E-04  0.534E-04
   9.477  0.794E-05  0.397E-05  0.397E-05
   9.479  0.182E-03  0.911E-04  0.911E-04
   9.481  0.206E-02  0.103E-02  0.103E-02
   9.483  0.319E-02  0.159E-02  0.159E-02
   9.485  0.299E-02  0.149E-02  0.149E-02
   9.487  0.175E-01  0.877E-02  0.877E-02
   9.489  0.178E-01  0.889E-02  0.889E-02
   9.491  0.256E-02  0.128E-02  0.128E-02
   9.493  0.237E-02  0.119E-02  0.119E-02
   9.495  0.648E-02  0.324E-02  0.324E-02
   9.497  0.377E-02  0.189E-02  0.189E-02
   9.499  0.101E-01  0.504E-02  0.504E-02
   9.501  0.144E-01  0.719E-02  0.719E-02
   9.503  0.272E-01  0.136E-01  0.136E-01
   9.505  0.198E-01  0.990E-02  0.990E-02
   9.507  0.274E-02  0.137E-02  0.137E-02
   9.509  0.227E-03  0.113E-03  0.113E-03
   9.511  0.700E-05  0.350E-05  0.350E-05
   9.513  0.328E-07  0.164E-07  0.164E-07
   9.515  0.209E-10  0.105E-10  0.105E-10
   9.517  0.181E-14  0.904E-15  0.904E-15
   9.519  0.989E-15  0.494E-15  0.494E-15
   9.521  0.140E-10  0.698E-11  0.698E-11
   9.523  0.267E-07  0.134E-07  0.134E-07
   9.525  0.691E-05  0.345E-05  0.345E-05
   9.527  0.242E-03  0.121E-03  0.121E-03
   9.529  0.115E-02  0.573E-03  0.573E-03
   9.531  0.735E-03  0.368E-03  0.368E-03
   9.533  0.638E-04  0.319E-04  0.319E-04
   9.535  0.750E-06  0.375E-06  0.375E-06
   9.537  0.119E-08  0.596E-09  0.596E-09
   9.539  0.257E-12  0.128E-12  0.128E-12
   9.541  0.962E-11  0.481E-11  0.481E-11
   9.543  0.412E-07  0.206E-07  0.206E-07
   9.545  0.239E-04  0.120E-04  0.120E-04
   9.547  0.188E-02  0.938E-03  0.938E-03
   9.549  0.199E-01  0.996E-02  0.996E-02
   9.551  0.286E-01  0.143E-01  0.143E-01
   9.553  0.568E-02  0.284E-02  0.284E-02
   9.555  0.133E-02  0.664E-03  0.664E-03
   9.557  0.179E-02  0.894E-03  0.894E-03
   9.559  0.366E-03  0.183E-03  0.183E-03
   9.561  0.101E-04  0.507E-05  0.507E-05
   9.563  0.380E-07  0.190E-07  0.190E-07
   9.565  0.193E-10  0.964E-11  0.964E-11
   9.567  0.132E-14  0.662E-15  0.662E-15
   9.569  0.123E-19  0.615E-20  0.615E-20
   9.571  0.000E+00  0.000E+00  0.000E+00
   9.573  0.000E+00  0.000E+00  0.000E+00
   9.575  0.378E-17  0.189E-17  0.189E-17
   9.577  0.178E-12  0.891E-13  0.891E-13
   9.579  0.114E-08  0.568E-09  0.568E-09
   9.581  0.981E-06  0.490E-06  0.490E-06
   9.583  0.115E-03  0.573E-04  0.573E-04
   9.585  0.181E-02  0.906E-03  0.906E-03
   9.587  0.388E-02  0.194E-02  0.194E-02
   9.589  0.112E-02  0.561E-03  0.561E-03
   9.591  0.487E-04  0.243E-04  0.243E-04
   9.593  0.674E-03  0.337E-03  0.337E-03
   9.595  0.130E-01  0.652E-02  0.652E-02
   9.597  0.341E-01  0.171E-01  0.171E-01
   9.599  0.121E-01  0.605E-02  0.605E-02
   9.601  0.580E-03  0.290E-03  0.290E-03
   9.603  0.377E-05  0.188E-05  0.188E-05
   9.605  0.331E-08  0.165E-08  0.165E-08
   9.607  0.393E-12  0.197E-12  0.197E-12
   9.609  0.632E-17  0.316E-17  0.316E-17
   9.611  0.000E+00  0.000E+00  0.000E+00
   9.613  0.139E-20  0.695E-21  0.695E-21
   9.615  0.150E-15  0.750E-16  0.750E-16
   9.617  0.219E-11  0.109E-11  0.109E-11
   9.619  0.432E-08  0.216E-08  0.216E-08
   9.621  0.115E-05  0.577E-06  0.577E-06
   9.623  0.418E-04  0.209E-04  0.209E-04
   9.625  0.204E-03  0.102E-03  0.102E-03
   9.627  0.135E-03  0.677E-04  0.677E-04
   9.629  0.121E-04  0.607E-05  0.607E-05
   9.631  0.147E-06  0.737E-07  0.737E-07
   9.633  0.242E-09  0.121E-09  0.121E-09
   9.635  0.538E-13  0.269E-13  0.269E-13
   9.637  0.162E-17  0.808E-18  0.808E-18
   9.639  0.506E-18  0.253E-18  0.253E-18
   9.641  0.470E-13  0.235E-13  0.235E-13
   9.643  0.591E-09  0.296E-09  0.296E-09
   9.645  0.101E-05  0.504E-06  0.504E-06
   9.647  0.235E-03  0.117E-03  0.117E-03
   9.649  0.765E-02  0.383E-02  0.383E-02
   9.651  0.382E-01  0.191E-01  0.191E-01
   9.653  0.385E-01  0.192E-01  0.192E-01
   9.655  0.171E-01  0.853E-02  0.853E-02
   9.657  0.467E-02  0.233E-02  0.233E-02
   9.659  0.385E-03  0.192E-03  0.192E-03
   9.661  0.960E-03  0.480E-03  0.480E-03
   9.663  0.103E-02  0.513E-03  0.513E-03
   9.665  0.149E-03  0.743E-04  0.743E-04
   9.667  0.298E-05  0.149E-05  0.149E-05
   9.669  0.213E-04  0.107E-04  0.107E-04
   9.671  0.954E-03  0.477E-03  0.477E-03
   9.673  0.765E-02  0.382E-02  0.382E-02
   9.675  0.243E-01  0.121E-01  0.121E-01
   9.677  0.244E-01  0.122E-01  0.122E-01
   9.679  0.389E-02  0.194E-02  0.194E-02
   9.681  0.851E-04  0.426E-04  0.426E-04
   9.683  0.253E-06  0.126E-06  0.126E-06
   9.685  0.101E-09  0.507E-10  0.507E-10
   9.687  0.551E-14  0.276E-14  0.276E-14
   9.689  0.361E-18  0.181E-18  0.181E-18
   9.691  0.235E-13  0.117E-13  0.117E-13
   9.693  0.233E-09  0.116E-09  0.116E-09
   9.695  0.315E-06  0.157E-06  0.157E-06
   9.697  0.607E-04  0.304E-04  0.304E-04
   9.699  0.203E-02  0.102E-02  0.102E-02
   9.701  0.178E-01  0.888E-02  0.888E-02
   9.703  0.391E-01  0.195E-01  0.195E-01
   9.705  0.150E-01  0.748E-02  0.748E-02
   9.707  0.912E-03  0.456E-03  0.456E-03
   9.709  0.945E-05  0.473E-05  0.473E-05
   9.711  0.173E-07  0.866E-08  0.866E-08
   9.713  0.524E-11  0.262E-11  0.262E-11
   9.715  0.284E-12  0.142E-12  0.142E-12
   9.717  0.256E-08  0.128E-08  0.128E-08
   9.719  0.313E-05  0.157E-05  0.157E-05
   9.721  0.518E-03  0.259E-03  0.259E-03
   9.723  0.116E-01  0.579E-02  0.579E-02
   9.725  0.351E-01  0.175E-01  0.175E-01
   9.727  0.144E-01  0.718E-02  0.718E-02
   9.729  0.801E-03  0.401E-03  0.401E-03
   9.731  0.319E-03  0.160E-03  0.160E-03
   9.733  0.282E-02  0.141E-02  0.141E-02
   9.735  0.344E-02  0.172E-02  0.172E-02
   9.737  0.567E-03  0.283E-03  0.283E-03
   9.739  0.126E-04  0.632E-05  0.632E-05
   9.741  0.382E-07  0.191E-07  0.191E-07
   9.743  0.384E-07  0.192E-07  0.192E-07
   9.745  0.117E-04  0.586E-05  0.586E-05
   9.747  0.484E-03  0.242E-03  0.242E-03
   9.749  0.271E-02  0.136E-02  0.136E-02
   9.751  0.207E-02  0.103E-02  0.103E-02
   9.753  0.158E-02  0.790E-03  0.790E-03
   9.755  0.192E-01  0.959E-02  0.959E-02
   9.757  0.364E-01  0.182E-01  0.182E-01
   9.759  0.933E-02  0.467E-02  0.467E-02
   9.761  0.324E-03  0.162E-03  0.162E-03
   9.763  0.152E-05  0.762E-06  0.762E-06
   9.765  0.175E-06  0.873E-07  0.873E-07
   9.767  0.358E-04  0.179E-04  0.179E-04
   9.769  0.100E-02  0.501E-03  0.501E-03
   9.771  0.379E-02  0.190E-02  0.190E-02
   9.773  0.194E-02  0.971E-03  0.971E-03
   9.775  0.381E-03  0.191E-03  0.191E-03
   9.777  0.730E-02  0.365E-02  0.365E-02
   9.779  0.292E-01  0.146E-01  0.146E-01
   9.781  0.158E-01  0.791E-02  0.791E-02
   9.783  0.116E-02  0.580E-03  0.580E-03
   9.785  0.115E-04  0.575E-05  0.575E-05
   9.787  0.646E-06  0.323E-06  0.323E-06
   9.789  0.176E-03  0.881E-04  0.881E-04
   9.791  0.734E-02  0.367E-02  0.367E-02
   9.793  0.474E-01  0.237E-01  0.237E-01
   9.795  0.480E-01  0.240E-01  0.240E-01
   9.797  0.918E-02  0.459E-02  0.459E-02
   9.799  0.403E-02  0.202E-02  0.202E-02
   9.801  0.113E-02  0.563E-03  0.563E-03
   9.803  0.670E-03  0.335E-03  0.335E-03
   9.805  0.133E-01  0.663E-02  0.663E-02
   9.807  0.381E-01  0.190E-01  0.190E-01
   9.809  0.204E-01  0.102E-01  0.102E-01
   9.811  0.371E-01  0.185E-01  0.185E-01
   9.813  0.317E-01  0.158E-01  0.158E-01
   9.815  0.374E-02  0.187E-02  0.187E-02
   9.817  0.598E-04  0.299E-04  0.299E-04
   9.819  0.481E-05  0.240E-05  0.240E-05
   9.821  0.514E-03  0.257E-03  0.257E-03
   9.823  0.764E-02  0.382E-02  0.382E-02
   9.825  0.154E-01  0.770E-02  0.770E-02
   9.827  0.539E-02  0.269E-02  0.269E-02
   9.829  0.131E-01  0.656E-02  0.656E-02
   9.831  0.320E-01  0.160E-01  0.160E-01
   9.833  0.358E-01  0.179E-01  0.179E-01
   9.835  0.945E-02  0.472E-02  0.472E-02
   9.837  0.365E-03  0.183E-03  0.183E-03
   9.839  0.194E-05  0.969E-06  0.969E-06
   9.841  0.140E-08  0.701E-09  0.701E-09
   9.843  0.711E-09  0.355E-09  0.355E-09
   9.845  0.780E-06  0.390E-06  0.390E-06
   9.847  0.125E-03  0.624E-04  0.624E-04
   9.849  0.310E-02  0.155E-02  0.155E-02
   9.851  0.127E-01  0.636E-02  0.636E-02
   9.853  0.941E-02  0.470E-02  0.470E-02
   9.855  0.487E-02  0.244E-02  0.244E-02
   9.857  0.244E-02  0.122E-02  0.122E-02
   9.859  0.139E-02  0.697E-03  0.697E-03
   9.861  0.157E-01  0.785E-02  0.785E-02
   9.863  0.278E-01  0.139E-01  0.139E-01
   9.865  0.904E-02  0.452E-02  0.452E-02
   9.867  0.261E-01  0.131E-01  0.131E-01
   9.869  0.384E-01  0.192E-01  0.192E-01
   9.871  0.771E-02  0.386E-02  0.386E-02
   9.873  0.122E-02  0.609E-03  0.609E-03
   9.875  0.100E-01  0.502E-02  0.502E-02
   9.877  0.208E-01  0.104E-01  0.104E-01
   9.879  0.591E-01  0.295E-01  0.295E-01
   9.881  0.784E-01  0.392E-01  0.392E-01
   9.883  0.209E-01  0.105E-01  0.105E-01
   9.885  0.955E-03  0.477E-03  0.477E-03
   9.887  0.653E-05  0.326E-05  0.326E-05
   9.889  0.626E-08  0.313E-08  0.313E-08
   9.891  0.823E-12  0.411E-12  0.411E-12
   9.893  0.155E-10  0.773E-11  0.773E-11
   9.895  0.390E-07  0.195E-07  0.195E-07
   9.897  0.133E-04  0.666E-05  0.666E-05
   9.899  0.615E-03  0.308E-03  0.308E-03
   9.901  0.386E-02  0.193E-02  0.193E-02
   9.903  0.385E-02  0.192E-02  0.192E-02
   9.905  0.482E-02  0.241E-02  0.241E-02
   9.907  0.452E-02  0.226E-02  0.226E-02
   9.909  0.720E-03  0.360E-03  0.360E-03
   9.911  0.243E-02  0.122E-02  0.122E-02
   9.913  0.812E-02  0.406E-02  0.406E-02
   9.915  0.116E-01  0.580E-02  0.580E-02
   9.917  0.352E-01  0.176E-01  0.176E-01
   9.919  0.204E-01  0.102E-01  0.102E-01
   9.921  0.199E-02  0.997E-03  0.997E-03
   9.923  0.111E-01  0.554E-02  0.554E-02
   9.925  0.505E-01  0.253E-01  0.253E-01
   9.927  0.357E-01  0.179E-01  0.179E-01
   9.929  0.370E-02  0.185E-02  0.185E-02
   9.931  0.539E-04  0.270E-04  0.270E-04
   9.933  0.108E-06  0.541E-07  0.541E-07
   9.935  0.296E-10  0.148E-10  0.148E-10
   9.937  0.110E-14  0.550E-15  0.550E-15
   9.939  0.686E-17  0.343E-17  0.343E-17
   9.941  0.304E-12  0.152E-12  0.152E-12
   9.943  0.182E-08  0.912E-09  0.912E-09
   9.945  0.149E-05  0.745E-06  0.745E-06
   9.947  0.169E-03  0.847E-04  0.847E-04
   9.949  0.294E-02  0.147E-02  0.147E-02
   9.951  0.101E-01  0.507E-02  0.507E-02
   9.953  0.846E-02  0.423E-02  0.423E-02
   9.955  0.135E-02  0.674E-03  0.674E-03
   9.957  0.324E-04  0.162E-04  0.162E-04
   9.959  0.274E-04  0.137E-04  0.137E-04
   9.961  0.110E-02  0.550E-03  0.550E-03
   9.963  0.600E-02  0.300E-02  0.300E-02
   9.965  0.443E-02  0.222E-02  0.222E-02
   9.967  0.443E-03  0.222E-03  0.222E-03
   9.969  0.819E-04  0.409E-04  0.409E-04
   9.971  0.228E-02  0.114E-02  0.114E-02
   9.973  0.927E-02  0.464E-02  0.464E-02
   9.975  0.523E-02  0.261E-02  0.261E-02
   9.977  0.661E-02  0.331E-02  0.331E-02
   9.979  0.491E-01  0.246E-01  0.246E-01
   9.981  0.976E-01  0.488E-01  0.488E-01
   9.983  0.832E-01  0.416E-01  0.416E-01
   9.985  0.204E-01  0.102E-01  0.102E-01
   9.987  0.877E-03  0.439E-03  0.439E-03
   9.989  0.126E-04  0.631E-05  0.631E-05
   9.991  0.992E-03  0.496E-03  0.496E-03
   9.993  0.191E-01  0.956E-02  0.956E-02
   9.995  0.527E-01  0.264E-01  0.264E-01
   9.997  0.225E-01  0.112E-01  0.112E-01
   9.999  0.228E-02  0.114E-02  0.114E-02
  10.001  0.437E-02  0.219E-02  0.219E-02
  10.003  0.400E-02  0.200E-02  0.200E-02
  10.005  0.499E-03  0.249E-03  0.249E-03
  10.007  0.840E-05  0.420E-05  0.420E-05
  10.009  0.192E-07  0.958E-08  0.958E-08
  10.011  0.651E-11  0.326E-11  0.326E-11
  10.013  0.342E-08  0.171E-08  0.171E-08
  10.015  0.263E-05  0.132E-05  0.132E-05
  10.017  0.274E-03  0.137E-03  0.137E-03
  10.019  0.389E-02  0.195E-02  0.195E-02
  10.021  0.871E-02  0.435E-02  0.435E-02
  10.023  0.898E-02  0.449E-02  0.449E-02
  10.025  0.509E-02  0.254E-02  0.254E-02
  10.027  0.482E-03  0.241E-03  0.241E-03
  10.029  0.695E-05  0.347E-05  0.347E-05
  10.031  0.215E-03  0.107E-03  0.107E-03
  10.033  0.907E-02  0.454E-02  0.454E-02
  10.035  0.518E-01  0.259E-01  0.259E-01
  10.037  0.401E-01  0.200E-01  0.200E-01
  10.039  0.714E-02  0.357E-02  0.357E-02
  10.041  0.367E-01  0.183E-01  0.183E-01
  10.043  0.850E-01  0.425E-01  0.425E-01
  10.045  0.508E-01  0.254E-01  0.254E-01
  10.047  0.507E-01  0.253E-01  0.253E-01
  10.049  0.582E-01  0.291E-01  0.291E-01
  10.051  0.514E-01  0.257E-01  0.257E-01
  10.053  0.897E-01  0.448E-01  0.448E-01
  10.055  0.884E-01  0.442E-01  0.442E-01
  10.057  0.329E-01  0.165E-01  0.165E-01
  10.059  0.609E-01  0.304E-01  0.304E-01
  10.061  0.754E-01  0.377E-01  0.377E-01
  10.063  0.271E+00  0.135E+00  0.135E+00
  10.065  0.252E+00  0.126E+00  0.126E+00
  10.067  0.388E-01  0.194E-01  0.194E-01
  10.069  0.201E-02  0.100E-02  0.100E-02
  10.071  0.464E-04  0.232E-04  0.232E-04
  10.073  0.448E-05  0.224E-05  0.224E-05
  10.075  0.454E-03  0.227E-03  0.227E-03
  10.077  0.650E-02  0.325E-02  0.325E-02
  10.079  0.126E-01  0.630E-02  0.630E-02
  10.081  0.336E-02  0.168E-02  0.168E-02
  10.083  0.202E-02  0.101E-02  0.101E-02
  10.085  0.854E-02  0.427E-02  0.427E-02
  10.087  0.519E-02  0.260E-02  0.260E-02
  10.089  0.428E-03  0.214E-03  0.214E-03
  10.091  0.753E-04  0.377E-04  0.377E-04
  10.093  0.275E-02  0.137E-02  0.137E-02
  10.095  0.163E-01  0.813E-02  0.813E-02
  10.097  0.151E-01  0.757E-02  0.757E-02
  10.099  0.242E-02  0.121E-02  0.121E-02
  10.101  0.621E-02  0.311E-02  0.311E-02
  10.103  0.262E-01  0.131E-01  0.131E-01
  10.105  0.151E-01  0.755E-02  0.755E-02
  10.107  0.137E-02  0.684E-03  0.684E-03
  10.109  0.366E-02  0.183E-02  0.183E-02
  10.111  0.103E-01  0.517E-02  0.517E-02
  10.113  0.461E-02  0.230E-02  0.230E-02
  10.115  0.260E-02  0.130E-02  0.130E-02
  10.117  0.791E-02  0.396E-02  0.396E-02
  10.119  0.368E-02  0.184E-02  0.184E-02
  10.121  0.232E-03  0.116E-03  0.116E-03
  10.123  0.198E-05  0.991E-06  0.991E-06
  10.125  0.229E-08  0.114E-08  0.114E-08
  10.127  0.358E-12  0.179E-12  0.179E-12
  10.129  0.816E-17  0.408E-17  0.408E-17
  10.131  0.414E-13  0.207E-13  0.207E-13
  10.133  0.390E-09  0.195E-09  0.195E-09
  10.135  0.497E-06  0.248E-06  0.248E-06
  10.137  0.857E-04  0.429E-04  0.429E-04
  10.139  0.200E-02  0.100E-02  0.100E-02
  10.141  0.633E-02  0.316E-02  0.316E-02
  10.143  0.271E-02  0.135E-02  0.135E-02
  10.145  0.453E-03  0.227E-03  0.227E-03
  10.147  0.503E-02  0.252E-02  0.252E-02
  10.149  0.154E-01  0.768E-02  0.768E-02
  10.151  0.145E-01  0.727E-02  0.727E-02
  10.153  0.408E-02  0.204E-02  0.204E-02
  10.155  0.688E-02  0.344E-02  0.344E-02
  10.157  0.244E-01  0.122E-01  0.122E-01
  10.159  0.157E-01  0.786E-02  0.786E-02
  10.161  0.147E-02  0.735E-03  0.735E-03
  10.163  0.539E-04  0.269E-04  0.269E-04
  10.165  0.159E-02  0.796E-03  0.796E-03
  10.167  0.111E-01  0.553E-02  0.553E-02
  10.169  0.115E-01  0.573E-02  0.573E-02
  10.171  0.183E-02  0.917E-03  0.917E-03
  10.173  0.102E-02  0.512E-03  0.512E-03
  10.175  0.152E-02  0.760E-03  0.760E-03
  10.177  0.989E-03  0.494E-03  0.494E-03
  10.179  0.973E-03  0.487E-03  0.487E-03
  10.181  0.102E-02  0.511E-03  0.511E-03
  10.183  0.748E-03  0.374E-03  0.374E-03
  10.185  0.105E-02  0.523E-03  0.523E-03
  10.187  0.448E-02  0.224E-02  0.224E-02
  10.189  0.702E-02  0.351E-02  0.351E-02
  10.191  0.216E-02  0.108E-02  0.108E-02
  10.193  0.206E-02  0.103E-02  0.103E-02
  10.195  0.694E-02  0.347E-02  0.347E-02
  10.197  0.121E-01  0.603E-02  0.603E-02
  10.199  0.532E-02  0.266E-02  0.266E-02
  10.201  0.302E-02  0.151E-02  0.151E-02
  10.203  0.687E-03  0.344E-03  0.344E-03
  10.205  0.111E-03  0.557E-04  0.557E-04
  10.207  0.286E-02  0.143E-02  0.143E-02
  10.209  0.135E-01  0.675E-02  0.675E-02
  10.211  0.142E-01  0.712E-02  0.712E-02
  10.213  0.212E-01  0.106E-01  0.106E-01
  10.215  0.128E-01  0.639E-02  0.639E-02
  10.217  0.147E-02  0.735E-03  0.735E-03
  10.219  0.116E-02  0.580E-03  0.580E-03
  10.221  0.112E-01  0.560E-02  0.560E-02
  10.223  0.248E-01  0.124E-01  0.124E-01
  10.225  0.231E-01  0.115E-01  0.115E-01
  10.227  0.451E-01  0.226E-01  0.226E-01
  10.229  0.259E-01  0.129E-01  0.129E-01
  10.231  0.541E-02  0.271E-02  0.271E-02
  10.233  0.227E-02  0.113E-02  0.113E-02
  10.235  0.363E-03  0.182E-03  0.182E-03
  10.237  0.985E-05  0.492E-05  0.492E-05
  10.239  0.234E-03  0.117E-03  0.117E-03
  10.241  0.717E-02  0.359E-02  0.359E-02
  10.243  0.360E-01  0.180E-01  0.180E-01
  10.245  0.425E-01  0.213E-01  0.213E-01
  10.247  0.234E-01  0.117E-01  0.117E-01
  10.249  0.372E-02  0.186E-02  0.186E-02
  10.251  0.312E-03  0.156E-03  0.156E-03
  10.253  0.345E-03  0.173E-03  0.173E-03
  10.255  0.582E-03  0.291E-03  0.291E-03
  10.257  0.102E-02  0.510E-03  0.510E-03
  10.259  0.140E-02  0.698E-03  0.698E-03
  10.261  0.614E-02  0.307E-02  0.307E-02
  10.263  0.763E-02  0.381E-02  0.381E-02
  10.265  0.247E-02  0.123E-02  0.123E-02
  10.267  0.690E-03  0.345E-03  0.345E-03
  10.269  0.112E-01  0.560E-02  0.560E-02
  10.271  0.355E-01  0.177E-01  0.177E-01
  10.273  0.177E-01  0.887E-02  0.887E-02
  10.275  0.588E-02  0.294E-02  0.294E-02
  10.277  0.235E-01  0.117E-01  0.117E-01
  10.279  0.307E-01  0.154E-01  0.154E-01
  10.281  0.797E-02  0.398E-02  0.398E-02
  10.283  0.338E-03  0.169E-03  0.169E-03
  10.285  0.849E-03  0.424E-03  0.424E-03
  10.287  0.654E-02  0.327E-02  0.327E-02
  10.289  0.819E-02  0.409E-02  0.409E-02
  10.291  0.248E-02  0.124E-02  0.124E-02
  10.293  0.394E-03  0.197E-03  0.197E-03
  10.295  0.231E-02  0.116E-02  0.116E-02
  10.297  0.165E-01  0.823E-02  0.823E-02
  10.299  0.252E-01  0.126E-01  0.126E-01
  10.301  0.333E-01  0.166E-01  0.166E-01
  10.303  0.146E-01  0.731E-02  0.731E-02
  10.305  0.991E-03  0.496E-03  0.496E-03
  10.307  0.110E-02  0.551E-03  0.551E-03
  10.309  0.512E-02  0.256E-02  0.256E-02
  10.311  0.324E-02  0.162E-02  0.162E-02
  10.313  0.278E-03  0.139E-03  0.139E-03
  10.315  0.323E-05  0.162E-05  0.162E-05
  10.317  0.729E-07  0.364E-07  0.364E-07
  10.319  0.143E-04  0.717E-05  0.717E-05
  10.321  0.410E-03  0.205E-03  0.205E-03
  10.323  0.160E-02  0.798E-03  0.798E-03
  10.325  0.979E-03  0.490E-03  0.490E-03
  10.327  0.632E-03  0.316E-03  0.316E-03
  10.329  0.308E-03  0.154E-03  0.154E-03
  10.331  0.483E-04  0.241E-04  0.241E-04
  10.333  0.217E-02  0.109E-02  0.109E-02
  10.335  0.254E-01  0.127E-01  0.127E-01
  10.337  0.423E-01  0.211E-01  0.211E-01
  10.339  0.263E-01  0.132E-01  0.132E-01
  10.341  0.433E-01  0.216E-01  0.216E-01
  10.343  0.159E-01  0.797E-02  0.797E-02
  10.345  0.130E-02  0.648E-03  0.648E-03
  10.347  0.664E-02  0.332E-02  0.332E-02
  10.349  0.292E-01  0.146E-01  0.146E-01
  10.351  0.348E-01  0.174E-01  0.174E-01
  10.353  0.684E-02  0.342E-02  0.342E-02
  10.355  0.246E-03  0.123E-03  0.123E-03
  10.357  0.469E-03  0.234E-03  0.234E-03
  10.359  0.102E-02  0.510E-03  0.510E-03
  10.361  0.478E-02  0.239E-02  0.239E-02
  10.363  0.138E-01  0.691E-02  0.691E-02
  10.365  0.325E-01  0.163E-01  0.163E-01
  10.367  0.170E-01  0.851E-02  0.851E-02
  10.369  0.106E-01  0.531E-02  0.531E-02
  10.371  0.353E-01  0.177E-01  0.177E-01
  10.373  0.393E-01  0.197E-01  0.197E-01
  10.375  0.185E-01  0.923E-02  0.923E-02
  10.377  0.144E-01  0.721E-02  0.721E-02
  10.379  0.151E-01  0.756E-02  0.756E-02
  10.381  0.323E-02  0.161E-02  0.161E-02
  10.383  0.586E-03  0.293E-03  0.293E-03
  10.385  0.373E-03  0.186E-03  0.186E-03
  10.387  0.447E-04  0.223E-04  0.223E-04
  10.389  0.147E-03  0.734E-04  0.734E-04
  10.391  0.699E-03  0.349E-03  0.349E-03
  10.393  0.457E-03  0.228E-03  0.228E-03
  10.395  0.406E-04  0.203E-04  0.203E-04
  10.397  0.804E-06  0.402E-06  0.402E-06
  10.399  0.945E-04  0.472E-04  0.472E-04
  10.401  0.436E-02  0.218E-02  0.218E-02
  10.403  0.355E-01  0.178E-01  0.178E-01
  10.405  0.606E-01  0.303E-01  0.303E-01
  10.407  0.279E-01  0.139E-01  0.139E-01
  10.409  0.267E-01  0.134E-01  0.134E-01
  10.411  0.246E-01  0.123E-01  0.123E-01
  10.413  0.860E-02  0.430E-02  0.430E-02
  10.415  0.842E-02  0.421E-02  0.421E-02
  10.417  0.321E-02  0.160E-02  0.160E-02
  10.419  0.429E-02  0.214E-02  0.214E-02
  10.421  0.277E-02  0.139E-02  0.139E-02
  10.423  0.119E-02  0.595E-03  0.595E-03
  10.425  0.656E-03  0.328E-03  0.328E-03
  10.427  0.534E-02  0.267E-02  0.267E-02
  10.429  0.937E-02  0.468E-02  0.468E-02
  10.431  0.142E-01  0.710E-02  0.710E-02
  10.433  0.274E-01  0.137E-01  0.137E-01
  10.435  0.919E-02  0.459E-02  0.459E-02
  10.437  0.103E-02  0.514E-03  0.514E-03
  10.439  0.423E-03  0.211E-03  0.211E-03
  10.441  0.514E-03  0.257E-03  0.257E-03
  10.443  0.228E-02  0.114E-02  0.114E-02
  10.445  0.359E-02  0.179E-02  0.179E-02
  10.447  0.259E-02  0.130E-02  0.130E-02
  10.449  0.194E-02  0.970E-03  0.970E-03
  10.451  0.775E-03  0.387E-03  0.387E-03
  10.453  0.179E-02  0.896E-03  0.896E-03
  10.455  0.357E-02  0.178E-02  0.178E-02
  10.457  0.134E-01  0.672E-02  0.672E-02
  10.459  0.215E-01  0.108E-01  0.108E-01
  10.461  0.213E-01  0.106E-01  0.106E-01
  10.463  0.222E-01  0.111E-01  0.111E-01
  10.465  0.205E-01  0.102E-01  0.102E-01
  10.467  0.156E-01  0.782E-02  0.782E-02
  10.469  0.152E-01  0.761E-02  0.761E-02
  10.471  0.542E-02  0.271E-02  0.271E-02
  10.473  0.527E-02  0.263E-02  0.263E-02
  10.475  0.283E-01  0.142E-01  0.142E-01
  10.477  0.431E-01  0.216E-01  0.216E-01
  10.479  0.320E-01  0.160E-01  0.160E-01
  10.481  0.279E-01  0.139E-01  0.139E-01
  10.483  0.506E-01  0.253E-01  0.253E-01
  10.485  0.545E-01  0.272E-01  0.272E-01
  10.487  0.105E-01  0.523E-02  0.523E-02
  10.489  0.320E-03  0.160E-03  0.160E-03
  10.491  0.110E-02  0.549E-03  0.549E-03
  10.493  0.831E-02  0.416E-02  0.416E-02
  10.495  0.118E-01  0.588E-02  0.588E-02
  10.497  0.144E-01  0.718E-02  0.718E-02
  10.499  0.934E-02  0.467E-02  0.467E-02
  10.501  0.150E-01  0.751E-02  0.751E-02
  10.503  0.288E-01  0.144E-01  0.144E-01
  10.505  0.233E-01  0.116E-01  0.116E-01
  10.507  0.562E-01  0.281E-01  0.281E-01
  10.509  0.429E-01  0.214E-01  0.214E-01
  10.511  0.241E-01  0.120E-01  0.120E-01
  10.513  0.347E-01  0.173E-01  0.173E-01
  10.515  0.209E-01  0.104E-01  0.104E-01
  10.517  0.138E-01  0.691E-02  0.691E-02
  10.519  0.203E-01  0.101E-01  0.101E-01
  10.521  0.122E-01  0.608E-02  0.608E-02
  10.523  0.141E-02  0.704E-03  0.704E-03
  10.525  0.387E-02  0.193E-02  0.193E-02
  10.527  0.667E-02  0.334E-02  0.334E-02
  10.529  0.307E-02  0.154E-02  0.154E-02
  10.531  0.115E-01  0.573E-02  0.573E-02
  10.533  0.195E-01  0.974E-02  0.974E-02
  10.535  0.110E-01  0.550E-02  0.550E-02
  10.537  0.544E-02  0.272E-02  0.272E-02
  10.539  0.394E-02  0.197E-02  0.197E-02
  10.541  0.119E-01  0.595E-02  0.595E-02
  10.543  0.114E-01  0.571E-02  0.571E-02
  10.545  0.258E-01  0.129E-01  0.129E-01
  10.547  0.248E-01  0.124E-01  0.124E-01
  10.549  0.373E-01  0.186E-01  0.186E-01
  10.551  0.531E-01  0.266E-01  0.266E-01
  10.553  0.431E-01  0.216E-01  0.216E-01
  10.555  0.296E-01  0.148E-01  0.148E-01
  10.557  0.119E-01  0.595E-02  0.595E-02
  10.559  0.331E-02  0.166E-02  0.166E-02
  10.561  0.120E-01  0.602E-02  0.602E-02
  10.563  0.358E-01  0.179E-01  0.179E-01
  10.565  0.275E-01  0.137E-01  0.137E-01
  10.567  0.137E-01  0.683E-02  0.683E-02
  10.569  0.176E-01  0.882E-02  0.882E-02
  10.571  0.355E-01  0.178E-01  0.178E-01
  10.573  0.432E-01  0.216E-01  0.216E-01
  10.575  0.425E-01  0.212E-01  0.212E-01
  10.577  0.160E-01  0.801E-02  0.801E-02
  10.579  0.174E-01  0.872E-02  0.872E-02
  10.581  0.650E-02  0.325E-02  0.325E-02
  10.583  0.546E-03  0.273E-03  0.273E-03
  10.585  0.826E-04  0.413E-04  0.413E-04
  10.587  0.399E-05  0.200E-05  0.200E-05
  10.589  0.707E-05  0.354E-05  0.354E-05
  10.591  0.399E-03  0.200E-03  0.200E-03
  10.593  0.370E-02  0.185E-02  0.185E-02
  10.595  0.152E-01  0.759E-02  0.759E-02
  10.597  0.384E-01  0.192E-01  0.192E-01
  10.599  0.209E-01  0.105E-01  0.105E-01
  10.601  0.133E-01  0.666E-02  0.666E-02
  10.603  0.180E-01  0.901E-02  0.901E-02
  10.605  0.258E-01  0.129E-01  0.129E-01
  10.607  0.246E-01  0.123E-01  0.123E-01
  10.609  0.187E-01  0.937E-02  0.937E-02
  10.611  0.125E-01  0.626E-02  0.626E-02
  10.613  0.110E-01  0.549E-02  0.549E-02
  10.615  0.123E-01  0.617E-02  0.617E-02
  10.617  0.241E-01  0.120E-01  0.120E-01
  10.619  0.192E-01  0.962E-02  0.962E-02
  10.621  0.260E-01  0.130E-01  0.130E-01
  10.623  0.442E-01  0.221E-01  0.221E-01
  10.625  0.642E-01  0.321E-01  0.321E-01
  10.627  0.370E-01  0.185E-01  0.185E-01
  10.629  0.206E-01  0.103E-01  0.103E-01
  10.631  0.391E-01  0.195E-01  0.195E-01
  10.633  0.420E-01  0.210E-01  0.210E-01
  10.635  0.133E-01  0.666E-02  0.666E-02
  10.637  0.262E-02  0.131E-02  0.131E-02
  10.639  0.315E-02  0.158E-02  0.158E-02
  10.641  0.310E-02  0.155E-02  0.155E-02
  10.643  0.240E-01  0.120E-01  0.120E-01
  10.645  0.106E+00  0.531E-01  0.531E-01
  10.647  0.118E+00  0.589E-01  0.589E-01
  10.649  0.537E-01  0.269E-01  0.269E-01
  10.651  0.320E-01  0.160E-01  0.160E-01
  10.653  0.571E-01  0.286E-01  0.286E-01
  10.655  0.381E-01  0.190E-01  0.190E-01
  10.657  0.461E-02  0.231E-02  0.231E-02
  10.659  0.198E-02  0.988E-03  0.988E-03
  10.661  0.127E-01  0.636E-02  0.636E-02
  10.663  0.278E-01  0.139E-01  0.139E-01
  10.665  0.846E-02  0.423E-02  0.423E-02
  10.667  0.776E-03  0.388E-03  0.388E-03
  10.669  0.448E-02  0.224E-02  0.224E-02
  10.671  0.127E-01  0.634E-02  0.634E-02
  10.673  0.136E-01  0.682E-02  0.682E-02
  10.675  0.289E-02  0.145E-02  0.145E-02
  10.677  0.334E-02  0.167E-02  0.167E-02
  10.679  0.241E-01  0.121E-01  0.121E-01
  10.681  0.375E-01  0.188E-01  0.188E-01
  10.683  0.112E-01  0.560E-02  0.560E-02
  10.685  0.534E-03  0.267E-03  0.267E-03
  10.687  0.287E-04  0.143E-04  0.143E-04
  10.689  0.138E-02  0.689E-03  0.689E-03
  10.691  0.136E-01  0.681E-02  0.681E-02
  10.693  0.428E-01  0.214E-01  0.214E-01
  10.695  0.423E-01  0.211E-01  0.211E-01
  10.697  0.491E-01  0.246E-01  0.246E-01
  10.699  0.868E-01  0.434E-01  0.434E-01
  10.701  0.612E-01  0.306E-01  0.306E-01
  10.703  0.125E+00  0.627E-01  0.627E-01
  10.705  0.130E+00  0.648E-01  0.648E-01
  10.707  0.607E-01  0.304E-01  0.304E-01
  10.709  0.306E-01  0.153E-01  0.153E-01
  10.711  0.433E-01  0.217E-01  0.217E-01
  10.713  0.528E-01  0.264E-01  0.264E-01
  10.715  0.207E-01  0.103E-01  0.103E-01
  10.717  0.302E-01  0.151E-01  0.151E-01
  10.719  0.284E-01  0.142E-01  0.142E-01
  10.721  0.317E-01  0.158E-01  0.158E-01
  10.723  0.531E-01  0.265E-01  0.265E-01
  10.725  0.473E-01  0.236E-01  0.236E-01
  10.727  0.589E-01  0.294E-01  0.294E-01
  10.729  0.411E-01  0.205E-01  0.205E-01
  10.731  0.229E-01  0.114E-01  0.114E-01
  10.733  0.135E-01  0.677E-02  0.677E-02
  10.735  0.277E-01  0.138E-01  0.138E-01
  10.737  0.368E-01  0.184E-01  0.184E-01
  10.739  0.374E-01  0.187E-01  0.187E-01
  10.741  0.152E-01  0.759E-02  0.759E-02
  10.743  0.417E-02  0.208E-02  0.208E-02
  10.745  0.461E-02  0.231E-02  0.231E-02
  10.747  0.132E-01  0.659E-02  0.659E-02
  10.749  0.102E-01  0.510E-02  0.510E-02
  10.751  0.264E-01  0.132E-01  0.132E-01
  10.753  0.834E-01  0.417E-01  0.417E-01
  10.755  0.758E-01  0.379E-01  0.379E-01
  10.757  0.524E-01  0.262E-01  0.262E-01
  10.759  0.622E-01  0.311E-01  0.311E-01
  10.761  0.348E-01  0.174E-01  0.174E-01
  10.763  0.433E-02  0.217E-02  0.217E-02
  10.765  0.153E-01  0.765E-02  0.765E-02
  10.767  0.609E-01  0.304E-01  0.304E-01
  10.769  0.568E-01  0.284E-01  0.284E-01
  10.771  0.256E-01  0.128E-01  0.128E-01
  10.773  0.226E-01  0.113E-01  0.113E-01
  10.775  0.547E-02  0.273E-02  0.273E-02
  10.777  0.178E-02  0.890E-03  0.890E-03
  10.779  0.153E-01  0.763E-02  0.763E-02
  10.781  0.529E-01  0.265E-01  0.265E-01
  10.783  0.969E-01  0.485E-01  0.485E-01
  10.785  0.714E-01  0.357E-01  0.357E-01
  10.787  0.168E-01  0.840E-02  0.840E-02
  10.789  0.284E-01  0.142E-01  0.142E-01
  10.791  0.670E-01  0.335E-01  0.335E-01
  10.793  0.737E-01  0.369E-01  0.369E-01
  10.795  0.726E-01  0.363E-01  0.363E-01
  10.797  0.207E-01  0.104E-01  0.104E-01
  10.799  0.112E-01  0.560E-02  0.560E-02
  10.801  0.179E-01  0.893E-02  0.893E-02
  10.803  0.673E-02  0.337E-02  0.337E-02
  10.805  0.198E-01  0.990E-02  0.990E-02
  10.807  0.573E-01  0.287E-01  0.287E-01
  10.809  0.746E-01  0.373E-01  0.373E-01
  10.811  0.571E-01  0.286E-01  0.286E-01
  10.813  0.298E-01  0.149E-01  0.149E-01
  10.815  0.428E-01  0.214E-01  0.214E-01
  10.817  0.275E-01  0.137E-01  0.137E-01
  10.819  0.238E-01  0.119E-01  0.119E-01
  10.821  0.209E-01  0.105E-01  0.105E-01
  10.823  0.464E-02  0.232E-02  0.232E-02
  10.825  0.179E-01  0.893E-02  0.893E-02
  10.827  0.555E-01  0.277E-01  0.277E-01
  10.829  0.766E-01  0.383E-01  0.383E-01
  10.831  0.386E-01  0.193E-01  0.193E-01
  10.833  0.479E-02  0.239E-02  0.239E-02
  10.835  0.321E-02  0.161E-02  0.161E-02
  10.837  0.187E-01  0.935E-02  0.935E-02
  10.839  0.254E-01  0.127E-01  0.127E-01
  10.841  0.285E-01  0.143E-01  0.143E-01
  10.843  0.357E-01  0.178E-01  0.178E-01
  10.845  0.179E-01  0.896E-02  0.896E-02
  10.847  0.227E-01  0.113E-01  0.113E-01
  10.849  0.188E-01  0.939E-02  0.939E-02
  10.851  0.656E-02  0.328E-02  0.328E-02
  10.853  0.650E-02  0.325E-02  0.325E-02
  10.855  0.359E-02  0.180E-02  0.180E-02
  10.857  0.163E-01  0.813E-02  0.813E-02
  10.859  0.320E-01  0.160E-01  0.160E-01
  10.861  0.423E-01  0.212E-01  0.212E-01
  10.863  0.111E+00  0.557E-01  0.557E-01
  10.865  0.132E+00  0.662E-01  0.662E-01
  10.867  0.691E-01  0.346E-01  0.346E-01
  10.869  0.306E-01  0.153E-01  0.153E-01
  10.871  0.171E-01  0.857E-02  0.857E-02
  10.873  0.388E-01  0.194E-01  0.194E-01
  10.875  0.267E-01  0.134E-01  0.134E-01
  10.877  0.236E-01  0.118E-01  0.118E-01
  10.879  0.250E-01  0.125E-01  0.125E-01
  10.881  0.350E-01  0.175E-01  0.175E-01
  10.883  0.349E-01  0.175E-01  0.175E-01
  10.885  0.173E-01  0.865E-02  0.865E-02
  10.887  0.237E-01  0.119E-01  0.119E-01
  10.889  0.223E-01  0.112E-01  0.112E-01
  10.891  0.684E-02  0.342E-02  0.342E-02
  10.893  0.631E-02  0.316E-02  0.316E-02
  10.895  0.266E-02  0.133E-02  0.133E-02
  10.897  0.236E-01  0.118E-01  0.118E-01
  10.899  0.769E-01  0.384E-01  0.384E-01
  10.901  0.570E-01  0.285E-01  0.285E-01
  10.903  0.480E-01  0.240E-01  0.240E-01
  10.905  0.370E-01  0.185E-01  0.185E-01
  10.907  0.196E-01  0.980E-02  0.980E-02
  10.909  0.554E-01  0.277E-01  0.277E-01
  10.911  0.583E-01  0.292E-01  0.292E-01
  10.913  0.475E-01  0.237E-01  0.237E-01
  10.915  0.626E-01  0.313E-01  0.313E-01
  10.917  0.331E-01  0.166E-01  0.166E-01
  10.919  0.279E-01  0.140E-01  0.140E-01
  10.921  0.590E-01  0.295E-01  0.295E-01
  10.923  0.703E-01  0.351E-01  0.351E-01
  10.925  0.476E-01  0.238E-01  0.238E-01
  10.927  0.259E-01  0.130E-01  0.130E-01
  10.929  0.655E-02  0.327E-02  0.327E-02
  10.931  0.129E-01  0.647E-02  0.647E-02
  10.933  0.882E-01  0.441E-01  0.441E-01
  10.935  0.106E+00  0.528E-01  0.528E-01
  10.937  0.233E-01  0.116E-01  0.116E-01
  10.939  0.122E-02  0.609E-03  0.609E-03
  10.941  0.136E-02  0.682E-03  0.682E-03
  10.943  0.261E-01  0.130E-01  0.130E-01
  10.945  0.776E-01  0.388E-01  0.388E-01
  10.947  0.698E-01  0.349E-01  0.349E-01
  10.949  0.706E-01  0.353E-01  0.353E-01
  10.951  0.457E-01  0.228E-01  0.228E-01
  10.953  0.182E-01  0.912E-02  0.912E-02
  10.955  0.151E-01  0.753E-02  0.753E-02
  10.957  0.342E-01  0.171E-01  0.171E-01
  10.959  0.414E-01  0.207E-01  0.207E-01
  10.961  0.168E-01  0.841E-02  0.841E-02
  10.963  0.181E-01  0.903E-02  0.903E-02
  10.965  0.350E-01  0.175E-01  0.175E-01
  10.967  0.752E-01  0.376E-01  0.376E-01
  10.969  0.621E-01  0.311E-01  0.311E-01
  10.971  0.220E-01  0.110E-01  0.110E-01
  10.973  0.285E-01  0.142E-01  0.142E-01
  10.975  0.279E-01  0.140E-01  0.140E-01
  10.977  0.532E-01  0.266E-01  0.266E-01
  10.979  0.717E-01  0.358E-01  0.358E-01
  10.981  0.741E-01  0.370E-01  0.370E-01
  10.983  0.532E-01  0.266E-01  0.266E-01
  10.985  0.754E-02  0.377E-02  0.377E-02
  10.987  0.641E-02  0.321E-02  0.321E-02
  10.989  0.339E-01  0.170E-01  0.170E-01
  10.991  0.349E-01  0.174E-01  0.174E-01
  10.993  0.110E-01  0.548E-02  0.548E-02
  10.995  0.361E-01  0.180E-01  0.180E-01
  10.997  0.587E-01  0.294E-01  0.294E-01
  10.999  0.922E-01  0.461E-01  0.461E-01
  11.001  0.983E-01  0.492E-01  0.492E-01
  11.003  0.568E-01  0.284E-01  0.284E-01
  11.005  0.454E-01  0.227E-01  0.227E-01
  11.007  0.363E-01  0.182E-01  0.182E-01
  11.009  0.615E-01  0.308E-01  0.308E-01
  11.011  0.440E-01  0.220E-01  0.220E-01
  11.013  0.615E-02  0.308E-02  0.308E-02
  11.015  0.352E-03  0.176E-03  0.176E-03
  11.017  0.336E-02  0.168E-02  0.168E-02
  11.019  0.139E-01  0.693E-02  0.693E-02
  11.021  0.257E-01  0.128E-01  0.128E-01
  11.023  0.227E-01  0.114E-01  0.114E-01
  11.025  0.579E-01  0.289E-01  0.289E-01
  11.027  0.611E-01  0.306E-01  0.306E-01
  11.029  0.777E-01  0.389E-01  0.389E-01
  11.031  0.133E+00  0.666E-01  0.666E-01
  11.033  0.692E-01  0.346E-01  0.346E-01
  11.035  0.522E-01  0.261E-01  0.261E-01
  11.037  0.405E-01  0.203E-01  0.203E-01
  11.039  0.223E-01  0.112E-01  0.112E-01
  11.041  0.121E-01  0.606E-02  0.606E-02
  11.043  0.175E-01  0.873E-02  0.873E-02
  11.045  0.296E-01  0.148E-01  0.148E-01
  11.047  0.255E-01  0.127E-01  0.127E-01
  11.049  0.622E-02  0.311E-02  0.311E-02
  11.051  0.141E-01  0.705E-02  0.705E-02
  11.053  0.999E-02  0.500E-02  0.500E-02
  11.055  0.278E-01  0.139E-01  0.139E-01
  11.057  0.117E+00  0.583E-01  0.583E-01
  11.059  0.989E-01  0.494E-01  0.494E-01
  11.061  0.540E-01  0.270E-01  0.270E-01
  11.063  0.670E-01  0.335E-01  0.335E-01
  11.065  0.402E-01  0.201E-01  0.201E-01
  11.067  0.211E-01  0.105E-01  0.105E-01
  11.069  0.466E-01  0.233E-01  0.233E-01
  11.071  0.356E-01  0.178E-01  0.178E-01
  11.073  0.232E-01  0.116E-01  0.116E-01
  11.075  0.306E-01  0.153E-01  0.153E-01
  11.077  0.578E-01  0.289E-01  0.289E-01
  11.079  0.761E-01  0.380E-01  0.380E-01
  11.081  0.136E+00  0.679E-01  0.679E-01
  11.083  0.115E+00  0.575E-01  0.575E-01
  11.085  0.360E-01  0.180E-01  0.180E-01
  11.087  0.248E-01  0.124E-01  0.124E-01
  11.089  0.625E-01  0.313E-01  0.313E-01
  11.091  0.961E-01  0.481E-01  0.481E-01
  11.093  0.641E-01  0.320E-01  0.320E-01
  11.095  0.122E-01  0.611E-02  0.611E-02
  11.097  0.602E-02  0.301E-02  0.301E-02
  11.099  0.242E-01  0.121E-01  0.121E-01
  11.101  0.107E+00  0.535E-01  0.535E-01
  11.103  0.900E-01  0.450E-01  0.450E-01
  11.105  0.630E-01  0.315E-01  0.315E-01
  11.107  0.315E-01  0.157E-01  0.157E-01
  11.109  0.104E-01  0.521E-02  0.521E-02
  11.111  0.331E-01  0.165E-01  0.165E-01
  11.113  0.395E-01  0.198E-01  0.198E-01
  11.115  0.131E+00  0.653E-01  0.653E-01
  11.117  0.158E+00  0.791E-01  0.791E-01
  11.119  0.491E-01  0.245E-01  0.245E-01
  11.121  0.598E-02  0.299E-02  0.299E-02
  11.123  0.249E-01  0.124E-01  0.124E-01
  11.125  0.140E+00  0.699E-01  0.699E-01
  11.127  0.243E+00  0.122E+00  0.122E+00
  11.129  0.304E+00  0.152E+00  0.152E+00
  11.131  0.289E+00  0.145E+00  0.145E+00
  11.133  0.255E+00  0.127E+00  0.127E+00
  11.135  0.767E-01  0.383E-01  0.383E-01
  11.137  0.139E-01  0.696E-02  0.696E-02
  11.139  0.627E-01  0.314E-01  0.314E-01
  11.141  0.267E+00  0.133E+00  0.133E+00
  11.143  0.251E+00  0.126E+00  0.126E+00
  11.145  0.132E+00  0.660E-01  0.660E-01
  11.147  0.700E-01  0.350E-01  0.350E-01
  11.149  0.479E-01  0.240E-01  0.240E-01
  11.151  0.486E-01  0.243E-01  0.243E-01
  11.153  0.476E-01  0.238E-01  0.238E-01
  11.155  0.197E+00  0.985E-01  0.985E-01
  11.157  0.251E+00  0.125E+00  0.125E+00
  11.159  0.946E-01  0.473E-01  0.473E-01
  11.161  0.124E-01  0.620E-02  0.620E-02
  11.163  0.175E-01  0.873E-02  0.873E-02
  11.165  0.189E-01  0.945E-02  0.945E-02
  11.167  0.187E-01  0.935E-02  0.935E-02
  11.169  0.210E-01  0.105E-01  0.105E-01
  11.171  0.987E-01  0.493E-01  0.493E-01
  11.173  0.774E-01  0.387E-01  0.387E-01
  11.175  0.123E-01  0.617E-02  0.617E-02
  11.177  0.646E-01  0.323E-01  0.323E-01
  11.179  0.178E+00  0.892E-01  0.892E-01
  11.181  0.153E+00  0.763E-01  0.763E-01
  11.183  0.982E-01  0.491E-01  0.491E-01
  11.185  0.121E+00  0.607E-01  0.607E-01
  11.187  0.792E-01  0.396E-01  0.396E-01
  11.189  0.951E-01  0.476E-01  0.476E-01
  11.191  0.809E-01  0.405E-01  0.405E-01
  11.193  0.213E-01  0.107E-01  0.107E-01
  11.195  0.356E-01  0.178E-01  0.178E-01
  11.197  0.750E-01  0.375E-01  0.375E-01
  11.199  0.517E-01  0.259E-01  0.259E-01
  11.201  0.367E-01  0.184E-01  0.184E-01
  11.203  0.465E-01  0.233E-01  0.233E-01
  11.205  0.130E+00  0.651E-01  0.651E-01
  11.207  0.951E-01  0.475E-01  0.475E-01
  11.209  0.359E-01  0.179E-01  0.179E-01
  11.211  0.335E-01  0.167E-01  0.167E-01
  11.213  0.133E-01  0.667E-02  0.667E-02
  11.215  0.176E-01  0.881E-02  0.881E-02
  11.217  0.850E-02  0.425E-02  0.425E-02
  11.219  0.283E-02  0.142E-02  0.142E-02
  11.221  0.262E-01  0.131E-01  0.131E-01
  11.223  0.417E-01  0.209E-01  0.209E-01
  11.225  0.914E-02  0.457E-02  0.457E-02
  11.227  0.274E-03  0.137E-03  0.137E-03
  11.229  0.136E-05  0.682E-06  0.682E-06
  11.231  0.108E-03  0.542E-04  0.542E-04
  11.233  0.760E-02  0.380E-02  0.380E-02
  11.235  0.843E-01  0.421E-01  0.421E-01
  11.237  0.165E+00  0.827E-01  0.827E-01
  11.239  0.784E-01  0.392E-01  0.392E-01
  11.241  0.112E-01  0.561E-02  0.561E-02
  11.243  0.196E-01  0.982E-02  0.982E-02
  11.245  0.553E-01  0.277E-01  0.277E-01
  11.247  0.465E-01  0.232E-01  0.232E-01
  11.249  0.558E-01  0.279E-01  0.279E-01
  11.251  0.451E-01  0.226E-01  0.226E-01
  11.253  0.402E-01  0.201E-01  0.201E-01
  11.255  0.470E-01  0.235E-01  0.235E-01
  11.257  0.348E-01  0.174E-01  0.174E-01
  11.259  0.764E-02  0.382E-02  0.382E-02
  11.261  0.126E-02  0.629E-03  0.629E-03
  11.263  0.263E-03  0.131E-03  0.131E-03
  11.265  0.978E-05  0.489E-05  0.489E-05
  11.267  0.249E-03  0.125E-03  0.125E-03
  11.269  0.123E-01  0.616E-02  0.616E-02
  11.271  0.843E-01  0.422E-01  0.422E-01
  11.273  0.858E-01  0.429E-01  0.429E-01
  11.275  0.157E-01  0.787E-02  0.787E-02
  11.277  0.636E-03  0.318E-03  0.318E-03
  11.279  0.296E-04  0.148E-04  0.148E-04
  11.281  0.121E-02  0.603E-03  0.603E-03
  11.283  0.914E-02  0.457E-02  0.457E-02
  11.285  0.242E-01  0.121E-01  0.121E-01
  11.287  0.381E-01  0.190E-01  0.190E-01
  11.289  0.465E-01  0.233E-01  0.233E-01
  11.291  0.684E-01  0.342E-01  0.342E-01
  11.293  0.447E-01  0.223E-01  0.223E-01
  11.295  0.264E-01  0.132E-01  0.132E-01
  11.297  0.358E-01  0.179E-01  0.179E-01
  11.299  0.601E-01  0.301E-01  0.301E-01
  11.301  0.504E-01  0.252E-01  0.252E-01
  11.303  0.180E-01  0.901E-02  0.901E-02
  11.305  0.659E-02  0.329E-02  0.329E-02
  11.307  0.400E-01  0.200E-01  0.200E-01
  11.309  0.175E+00  0.876E-01  0.876E-01
  11.311  0.166E+00  0.829E-01  0.829E-01
  11.313  0.709E-01  0.355E-01  0.355E-01
  11.315  0.154E+00  0.770E-01  0.770E-01
  11.317  0.747E-01  0.373E-01  0.373E-01
  11.319  0.520E-02  0.260E-02  0.260E-02
  11.321  0.513E-04  0.256E-04  0.256E-04
  11.323  0.710E-07  0.355E-07  0.355E-07
  11.325  0.142E-06  0.712E-07  0.712E-07
  11.327  0.718E-04  0.359E-04  0.359E-04
  11.329  0.520E-02  0.260E-02  0.260E-02
  11.331  0.569E-01  0.284E-01  0.284E-01
  11.333  0.108E+00  0.538E-01  0.538E-01
  11.335  0.490E-01  0.245E-01  0.245E-01
  11.337  0.221E-01  0.111E-01  0.111E-01
  11.339  0.490E-01  0.245E-01  0.245E-01
  11.341  0.260E-01  0.130E-01  0.130E-01
  11.343  0.108E-01  0.538E-02  0.538E-02
  11.345  0.249E-01  0.124E-01  0.124E-01
  11.347  0.353E-01  0.177E-01  0.177E-01
  11.349  0.798E-01  0.399E-01  0.399E-01
  11.351  0.118E+00  0.588E-01  0.588E-01
  11.353  0.497E-01  0.248E-01  0.248E-01
  11.355  0.261E-01  0.131E-01  0.131E-01
  11.357  0.659E-01  0.330E-01  0.330E-01
  11.359  0.104E+00  0.522E-01  0.522E-01
  11.361  0.974E-01  0.487E-01  0.487E-01
  11.363  0.485E-01  0.242E-01  0.242E-01
  11.365  0.351E-01  0.175E-01  0.175E-01
  11.367  0.142E-01  0.712E-02  0.712E-02
  11.369  0.952E-02  0.476E-02  0.476E-02
  11.371  0.383E-02  0.192E-02  0.192E-02
  11.373  0.310E-03  0.155E-03  0.155E-03
  11.375  0.576E-03  0.288E-03  0.288E-03
  11.377  0.110E-01  0.551E-02  0.551E-02
  11.379  0.288E-01  0.144E-01  0.144E-01
  11.381  0.121E-01  0.606E-02  0.606E-02
  11.383  0.124E-01  0.622E-02  0.622E-02
  11.385  0.321E-01  0.160E-01  0.160E-01
  11.387  0.504E-01  0.252E-01  0.252E-01
  11.389  0.282E-01  0.141E-01  0.141E-01
  11.391  0.376E-02  0.188E-02  0.188E-02
  11.393  0.251E-02  0.126E-02  0.126E-02
  11.395  0.491E-01  0.246E-01  0.246E-01
  11.397  0.172E+00  0.860E-01  0.860E-01
  11.399  0.118E+00  0.592E-01  0.592E-01
  11.401  0.359E-01  0.179E-01  0.179E-01
  11.403  0.155E-01  0.774E-02  0.774E-02
  11.405  0.418E-01  0.209E-01  0.209E-01
  11.407  0.562E-01  0.281E-01  0.281E-01
  11.409  0.112E-01  0.562E-02  0.562E-02
  11.411  0.252E-02  0.126E-02  0.126E-02
  11.413  0.420E-02  0.210E-02  0.210E-02
  11.415  0.543E-02  0.271E-02  0.271E-02
  11.417  0.155E-01  0.777E-02  0.777E-02
  11.419  0.218E-01  0.109E-01  0.109E-01
  11.421  0.324E-01  0.162E-01  0.162E-01
  11.423  0.215E-01  0.107E-01  0.107E-01
  11.425  0.670E-02  0.335E-02  0.335E-02
  11.427  0.168E-01  0.841E-02  0.841E-02
  11.429  0.393E-01  0.196E-01  0.196E-01
  11.431  0.314E-01  0.157E-01  0.157E-01
  11.433  0.284E-01  0.142E-01  0.142E-01
  11.435  0.328E-01  0.164E-01  0.164E-01
  11.437  0.190E-01  0.952E-02  0.952E-02
  11.439  0.371E-01  0.185E-01  0.185E-01
  11.441  0.784E-01  0.392E-01  0.392E-01
  11.443  0.109E+00  0.543E-01  0.543E-01
  11.445  0.835E-01  0.418E-01  0.418E-01
  11.447  0.357E-01  0.178E-01  0.178E-01
  11.449  0.283E-01  0.141E-01  0.141E-01
  11.451  0.163E-01  0.814E-02  0.814E-02
  11.453  0.196E-02  0.978E-03  0.978E-03
  11.455  0.100E-02  0.502E-03  0.502E-03
  11.457  0.997E-02  0.499E-02  0.499E-02
  11.459  0.251E-01  0.125E-01  0.125E-01
  11.461  0.116E-01  0.579E-02  0.579E-02
  11.463  0.114E-01  0.568E-02  0.568E-02
  11.465  0.641E-02  0.320E-02  0.320E-02
  11.467  0.160E-01  0.802E-02  0.802E-02
  11.469  0.409E-01  0.204E-01  0.204E-01
  11.471  0.168E-01  0.838E-02  0.838E-02
  11.473  0.103E-02  0.513E-03  0.513E-03
  11.475  0.985E-03  0.492E-03  0.492E-03
  11.477  0.230E-01  0.115E-01  0.115E-01
  11.479  0.777E-01  0.388E-01  0.388E-01
  11.481  0.488E-01  0.244E-01  0.244E-01
  11.483  0.320E-01  0.160E-01  0.160E-01
  11.485  0.687E-01  0.344E-01  0.344E-01
  11.487  0.554E-01  0.277E-01  0.277E-01
  11.489  0.253E-01  0.126E-01  0.126E-01
  11.491  0.306E-01  0.153E-01  0.153E-01
  11.493  0.581E-01  0.291E-01  0.291E-01
  11.495  0.743E-01  0.371E-01  0.371E-01
  11.497  0.249E-01  0.124E-01  0.124E-01
  11.499  0.711E-01  0.356E-01  0.356E-01
  11.501  0.923E-01  0.461E-01  0.461E-01
  11.503  0.551E-01  0.276E-01  0.276E-01
  11.505  0.338E-01  0.169E-01  0.169E-01
  11.507  0.726E-02  0.363E-02  0.363E-02
  11.509  0.181E-01  0.906E-02  0.906E-02
  11.511  0.150E-01  0.750E-02  0.750E-02
  11.513  0.169E-02  0.844E-03  0.844E-03
  11.515  0.398E-03  0.199E-03  0.199E-03
  11.517  0.722E-02  0.361E-02  0.361E-02
  11.519  0.207E-01  0.103E-01  0.103E-01
  11.521  0.192E-01  0.961E-02  0.961E-02
  11.523  0.253E-01  0.127E-01  0.127E-01
  11.525  0.563E-01  0.281E-01  0.281E-01
  11.527  0.690E-01  0.345E-01  0.345E-01
  11.529  0.471E-01  0.235E-01  0.235E-01
  11.531  0.318E-01  0.159E-01  0.159E-01
  11.533  0.494E-02  0.247E-02  0.247E-02
  11.535  0.335E-02  0.168E-02  0.168E-02
  11.537  0.172E-01  0.862E-02  0.862E-02
  11.539  0.215E-01  0.108E-01  0.108E-01
  11.541  0.159E-01  0.793E-02  0.793E-02
  11.543  0.238E-01  0.119E-01  0.119E-01
  11.545  0.194E-01  0.969E-02  0.969E-02
  11.547  0.688E-01  0.344E-01  0.344E-01
  11.549  0.935E-01  0.468E-01  0.468E-01
  11.551  0.373E-01  0.186E-01  0.186E-01
  11.553  0.266E-01  0.133E-01  0.133E-01
  11.555  0.244E-01  0.122E-01  0.122E-01
  11.557  0.133E-01  0.664E-02  0.664E-02
  11.559  0.359E-02  0.180E-02  0.180E-02
  11.561  0.224E-01  0.112E-01  0.112E-01
  11.563  0.702E-01  0.351E-01  0.351E-01
  11.565  0.676E-01  0.338E-01  0.338E-01
  11.567  0.156E-01  0.780E-02  0.780E-02
  11.569  0.111E-01  0.554E-02  0.554E-02
  11.571  0.317E-01  0.159E-01  0.159E-01
  11.573  0.576E-01  0.288E-01  0.288E-01
  11.575  0.535E-01  0.267E-01  0.267E-01
  11.577  0.240E-01  0.120E-01  0.120E-01
  11.579  0.243E-01  0.121E-01  0.121E-01
  11.581  0.527E-01  0.263E-01  0.263E-01
  11.583  0.733E-01  0.366E-01  0.366E-01
  11.585  0.129E+00  0.644E-01  0.644E-01
  11.587  0.822E-01  0.411E-01  0.411E-01
  11.589  0.133E-01  0.666E-02  0.666E-02
  11.591  0.154E-01  0.770E-02  0.770E-02
  11.593  0.370E-01  0.185E-01  0.185E-01
  11.595  0.440E-01  0.220E-01  0.220E-01
  11.597  0.156E-01  0.779E-02  0.779E-02
  11.599  0.790E-02  0.395E-02  0.395E-02
  11.601  0.617E-02  0.309E-02  0.309E-02
  11.603  0.130E-01  0.648E-02  0.648E-02
  11.605  0.748E-01  0.374E-01  0.374E-01
  11.607  0.152E+00  0.762E-01  0.762E-01
  11.609  0.123E+00  0.613E-01  0.613E-01
  11.611  0.493E-01  0.247E-01  0.247E-01
  11.613  0.635E-01  0.317E-01  0.317E-01
  11.615  0.422E-01  0.211E-01  0.211E-01
  11.617  0.184E-01  0.921E-02  0.921E-02
  11.619  0.897E-02  0.449E-02  0.449E-02
  11.621  0.132E-01  0.660E-02  0.660E-02
  11.623  0.149E-01  0.743E-02  0.743E-02
  11.625  0.406E-01  0.203E-01  0.203E-01
  11.627  0.306E-01  0.153E-01  0.153E-01
