# E (eV)   ldos(E)   pdos(E)_1   pdos(E)_2   pdos(E)_3   pdos(E)_4   pdos(E)_5   pdos(E)_6   
   7.605  0.254E-03  0.608E-04  0.328E-04  0.336E-04  0.336E-04  0.328E-04  0.608E-04
   7.607  0.159E-01  0.380E-02  0.205E-02  0.211E-02  0.211E-02  0.205E-02  0.380E-02
   7.609  0.142E+00  0.336E-01  0.182E-01  0.193E-01  0.193E-01  0.182E-01  0.336E-01
   7.611  0.243E+00  0.546E-01  0.303E-01  0.366E-01  0.366E-01  0.303E-01  0.546E-01
   7.613  0.199E+00  0.410E-01  0.245E-01  0.340E-01  0.340E-01  0.245E-01  0.410E-01
   7.615  0.816E-01  0.165E-01  0.104E-01  0.139E-01  0.139E-01  0.104E-01  0.165E-01
   7.617  0.831E-02  0.166E-02  0.114E-02  0.136E-02  0.136E-02  0.114E-02  0.166E-02
   7.619  0.264E-01  0.478E-02  0.515E-02  0.329E-02  0.329E-02  0.515E-02  0.478E-02
   7.621  0.914E-01  0.165E-01  0.178E-01  0.114E-01  0.114E-01  0.178E-01  0.165E-01
   7.623  0.429E-01  0.776E-02  0.837E-02  0.534E-02  0.534E-02  0.837E-02  0.776E-02
   7.625  0.273E-02  0.493E-03  0.532E-03  0.339E-03  0.339E-03  0.532E-03  0.493E-03
   7.627  0.235E-04  0.424E-05  0.458E-05  0.292E-05  0.292E-05  0.458E-05  0.424E-05
   7.629  0.273E-07  0.494E-08  0.533E-08  0.340E-08  0.340E-08  0.533E-08  0.494E-08
   7.631  0.430E-11  0.778E-12  0.839E-12  0.535E-12  0.535E-12  0.839E-12  0.778E-12
   7.633  0.924E-16  0.167E-16  0.180E-16  0.115E-16  0.115E-16  0.180E-16  0.167E-16
   7.635  0.710E-13  0.142E-13  0.820E-14  0.131E-13  0.131E-13  0.820E-14  0.142E-13
   7.637  0.102E-08  0.203E-09  0.118E-09  0.188E-09  0.188E-09  0.118E-09  0.203E-09
   7.639  0.199E-05  0.398E-06  0.231E-06  0.368E-06  0.368E-06  0.231E-06  0.398E-06
   7.641  0.544E-03  0.108E-03  0.634E-04  0.100E-03  0.100E-03  0.634E-04  0.108E-03
   7.643  0.215E-01  0.429E-02  0.254E-02  0.392E-02  0.392E-02  0.254E-02  0.429E-02
   7.645  0.133E+00  0.266E-01  0.161E-01  0.239E-01  0.239E-01  0.161E-01  0.266E-01
   7.647  0.141E+00  0.282E-01  0.176E-01  0.246E-01  0.246E-01  0.176E-01  0.282E-01
   7.649  0.267E-01  0.532E-02  0.351E-02  0.451E-02  0.451E-02  0.351E-02  0.532E-02
   7.651  0.277E-01  0.501E-02  0.543E-02  0.343E-02  0.343E-02  0.543E-02  0.501E-02
   7.653  0.819E-01  0.147E-01  0.162E-01  0.100E-01  0.100E-01  0.162E-01  0.147E-01
   7.655  0.340E-01  0.617E-02  0.668E-02  0.416E-02  0.416E-02  0.668E-02  0.617E-02
   7.657  0.212E-01  0.617E-02  0.228E-02  0.213E-02  0.213E-02  0.228E-02  0.617E-02
   7.659  0.130E+00  0.394E-01  0.129E-01  0.129E-01  0.129E-01  0.129E-01  0.394E-01
   7.661  0.119E+00  0.360E-01  0.118E-01  0.118E-01  0.118E-01  0.118E-01  0.360E-01
   7.663  0.155E-01  0.463E-02  0.155E-02  0.155E-02  0.155E-02  0.155E-02  0.463E-02
   7.665  0.293E-01  0.709E-02  0.373E-02  0.383E-02  0.383E-02  0.373E-02  0.709E-02
   7.667  0.159E+00  0.383E-01  0.202E-01  0.208E-01  0.208E-01  0.202E-01  0.383E-01
   7.669  0.117E+00  0.283E-01  0.149E-01  0.153E-01  0.153E-01  0.149E-01  0.283E-01
   7.671  0.117E-01  0.282E-02  0.149E-02  0.153E-02  0.153E-02  0.149E-02  0.282E-02
   7.673  0.477E-03  0.101E-03  0.584E-04  0.784E-04  0.784E-04  0.584E-04  0.101E-03
   7.675  0.166E-01  0.329E-02  0.201E-02  0.298E-02  0.298E-02  0.201E-02  0.329E-02
   7.677  0.120E+00  0.239E-01  0.148E-01  0.215E-01  0.215E-01  0.148E-01  0.239E-01
   7.679  0.123E+00  0.245E-01  0.154E-01  0.217E-01  0.217E-01  0.154E-01  0.245E-01
   7.681  0.266E-01  0.510E-02  0.402E-02  0.416E-02  0.416E-02  0.402E-02  0.510E-02
   7.683  0.596E-01  0.108E-01  0.118E-01  0.722E-02  0.722E-02  0.118E-01  0.108E-01
   7.685  0.728E-01  0.163E-01  0.114E-01  0.873E-02  0.873E-02  0.114E-01  0.163E-01
   7.687  0.125E+00  0.413E-01  0.656E-02  0.147E-01  0.147E-01  0.656E-02  0.413E-01
   7.689  0.928E-01  0.314E-01  0.416E-02  0.109E-01  0.109E-01  0.416E-02  0.314E-01
   7.691  0.978E-02  0.331E-02  0.437E-03  0.115E-02  0.115E-02  0.437E-03  0.331E-02
   7.693  0.140E-03  0.472E-04  0.624E-05  0.164E-04  0.164E-04  0.624E-05  0.472E-04
   7.695  0.270E-06  0.913E-07  0.120E-07  0.317E-07  0.317E-07  0.120E-07  0.913E-07
   7.697  0.706E-10  0.239E-10  0.315E-11  0.828E-11  0.828E-11  0.315E-11  0.239E-10
   7.699  0.402E-10  0.794E-11  0.514E-11  0.703E-11  0.703E-11  0.514E-11  0.794E-11
   7.701  0.171E-06  0.337E-07  0.217E-07  0.299E-07  0.299E-07  0.217E-07  0.337E-07
   7.703  0.985E-04  0.195E-04  0.125E-04  0.173E-04  0.173E-04  0.125E-04  0.195E-04
   7.705  0.773E-02  0.153E-02  0.972E-03  0.137E-02  0.137E-02  0.972E-03  0.153E-02
   7.707  0.825E-01  0.163E-01  0.103E-01  0.146E-01  0.146E-01  0.103E-01  0.163E-01
   7.709  0.121E+00  0.238E-01  0.151E-01  0.214E-01  0.214E-01  0.151E-01  0.238E-01
   7.711  0.428E-01  0.809E-02  0.680E-02  0.650E-02  0.650E-02  0.680E-02  0.809E-02
   7.713  0.609E-01  0.109E-01  0.123E-01  0.728E-02  0.728E-02  0.123E-01  0.109E-01
   7.715  0.256E-01  0.458E-02  0.519E-02  0.305E-02  0.305E-02  0.519E-02  0.458E-02
   7.717  0.148E-02  0.264E-03  0.299E-03  0.176E-03  0.176E-03  0.299E-03  0.264E-03
   7.719  0.115E-04  0.205E-05  0.233E-05  0.137E-05  0.137E-05  0.233E-05  0.205E-05
   7.721  0.130E-07  0.239E-08  0.256E-08  0.156E-08  0.156E-08  0.256E-08  0.239E-08
   7.723  0.222E-05  0.567E-06  0.267E-06  0.277E-06  0.277E-06  0.267E-06  0.567E-06
   7.725  0.780E-03  0.202E-03  0.923E-04  0.954E-04  0.954E-04  0.923E-04  0.202E-03
   7.727  0.382E-01  0.101E-01  0.443E-02  0.457E-02  0.457E-02  0.443E-02  0.101E-01
   7.729  0.262E+00  0.707E-01  0.297E-01  0.306E-01  0.306E-01  0.297E-01  0.707E-01
   7.731  0.253E+00  0.699E-01  0.279E-01  0.287E-01  0.287E-01  0.279E-01  0.699E-01
   7.733  0.383E-01  0.105E-01  0.420E-02  0.446E-02  0.446E-02  0.420E-02  0.105E-01
   7.735  0.629E-01  0.132E-01  0.790E-02  0.104E-01  0.104E-01  0.790E-02  0.132E-01
   7.737  0.256E+00  0.616E-01  0.312E-01  0.353E-01  0.353E-01  0.312E-01  0.616E-01
   7.739  0.510E+00  0.134E+00  0.629E-01  0.580E-01  0.580E-01  0.629E-01  0.134E+00
   7.741  0.730E+00  0.196E+00  0.899E-01  0.795E-01  0.795E-01  0.899E-01  0.196E+00
   7.743  0.920E+00  0.253E+00  0.108E+00  0.991E-01  0.991E-01  0.108E+00  0.253E+00
   7.745  0.774E+00  0.215E+00  0.892E-01  0.829E-01  0.829E-01  0.892E-01  0.215E+00
   7.747  0.358E+00  0.982E-01  0.421E-01  0.385E-01  0.385E-01  0.421E-01  0.982E-01
   7.749  0.207E+00  0.549E-01  0.264E-01  0.222E-01  0.222E-01  0.264E-01  0.549E-01
   7.751  0.203E+00  0.546E-01  0.253E-01  0.214E-01  0.214E-01  0.253E-01  0.546E-01
   7.753  0.988E-01  0.271E-01  0.117E-01  0.106E-01  0.106E-01  0.117E-01  0.271E-01
   7.755  0.956E-01  0.249E-01  0.123E-01  0.105E-01  0.105E-01  0.123E-01  0.249E-01
   7.757  0.112E+00  0.290E-01  0.147E-01  0.122E-01  0.122E-01  0.147E-01  0.290E-01
   7.759  0.191E+00  0.500E-01  0.252E-01  0.201E-01  0.201E-01  0.252E-01  0.500E-01
   7.761  0.216E+00  0.544E-01  0.279E-01  0.256E-01  0.256E-01  0.279E-01  0.544E-01
   7.763  0.114E+00  0.240E-01  0.149E-01  0.180E-01  0.180E-01  0.149E-01  0.240E-01
   7.765  0.974E-01  0.208E-01  0.154E-01  0.125E-01  0.125E-01  0.154E-01  0.208E-01
   7.767  0.138E+00  0.335E-01  0.201E-01  0.154E-01  0.154E-01  0.201E-01  0.335E-01
   7.769  0.592E-01  0.153E-01  0.779E-02  0.650E-02  0.650E-02  0.779E-02  0.153E-01
   7.771  0.101E+00  0.276E-01  0.122E-01  0.106E-01  0.106E-01  0.122E-01  0.276E-01
   7.773  0.186E+00  0.483E-01  0.257E-01  0.189E-01  0.189E-01  0.257E-01  0.483E-01
   7.775  0.988E-01  0.245E-01  0.152E-01  0.978E-02  0.978E-02  0.152E-01  0.245E-01
   7.777  0.113E-01  0.277E-02  0.175E-02  0.112E-02  0.112E-02  0.175E-02  0.277E-02
   7.779  0.298E-01  0.760E-02  0.401E-02  0.327E-02  0.327E-02  0.401E-02  0.760E-02
   7.781  0.112E+00  0.287E-01  0.151E-01  0.124E-01  0.124E-01  0.151E-01  0.287E-01
   7.783  0.679E-01  0.168E-01  0.907E-02  0.806E-02  0.806E-02  0.907E-02  0.168E-01
   7.785  0.928E-01  0.210E-01  0.117E-01  0.137E-01  0.137E-01  0.117E-01  0.210E-01
   7.787  0.172E+00  0.419E-01  0.222E-01  0.219E-01  0.219E-01  0.222E-01  0.419E-01
   7.789  0.787E-01  0.189E-01  0.115E-01  0.895E-02  0.895E-02  0.115E-01  0.189E-01
   7.791  0.765E-01  0.180E-01  0.130E-01  0.729E-02  0.729E-02  0.130E-01  0.180E-01
   7.793  0.149E+00  0.362E-01  0.237E-01  0.148E-01  0.148E-01  0.237E-01  0.362E-01
   7.795  0.249E+00  0.688E-01  0.256E-01  0.300E-01  0.300E-01  0.256E-01  0.688E-01
   7.797  0.311E+00  0.890E-01  0.292E-01  0.375E-01  0.375E-01  0.292E-01  0.890E-01
   7.799  0.159E+00  0.425E-01  0.190E-01  0.179E-01  0.179E-01  0.190E-01  0.425E-01
   7.801  0.414E-01  0.109E-01  0.530E-02  0.448E-02  0.448E-02  0.530E-02  0.109E-01
   7.803  0.108E+00  0.320E-01  0.109E-01  0.112E-01  0.112E-01  0.109E-01  0.320E-01
   7.805  0.282E+00  0.795E-01  0.302E-01  0.314E-01  0.314E-01  0.302E-01  0.795E-01
   7.807  0.153E+00  0.387E-01  0.190E-01  0.187E-01  0.187E-01  0.190E-01  0.387E-01
   7.809  0.237E-01  0.499E-02  0.390E-02  0.296E-02  0.296E-02  0.390E-02  0.499E-02
   7.811  0.142E-02  0.274E-03  0.276E-03  0.160E-03  0.160E-03  0.276E-03  0.274E-03
   7.813  0.146E-01  0.334E-02  0.265E-02  0.129E-02  0.129E-02  0.265E-02  0.334E-02
   7.815  0.108E+00  0.247E-01  0.195E-01  0.956E-02  0.956E-02  0.195E-01  0.247E-01
   7.817  0.133E+00  0.312E-01  0.230E-01  0.124E-01  0.124E-01  0.230E-01  0.312E-01
   7.819  0.129E+00  0.323E-01  0.183E-01  0.137E-01  0.137E-01  0.183E-01  0.323E-01
   7.821  0.796E-01  0.193E-01  0.110E-01  0.956E-02  0.956E-02  0.110E-01  0.193E-01
   7.823  0.474E-01  0.938E-02  0.709E-02  0.724E-02  0.724E-02  0.709E-02  0.938E-02
   7.825  0.475E-01  0.115E-01  0.647E-02  0.577E-02  0.577E-02  0.647E-02  0.115E-01
   7.827  0.998E-01  0.277E-01  0.115E-01  0.107E-01  0.107E-01  0.115E-01  0.277E-01
   7.829  0.453E-01  0.126E-01  0.519E-02  0.484E-02  0.484E-02  0.519E-02  0.126E-01
   7.831  0.286E-02  0.793E-03  0.327E-03  0.307E-03  0.307E-03  0.327E-03  0.793E-03
   7.833  0.193E-02  0.371E-03  0.275E-03  0.321E-03  0.321E-03  0.275E-03  0.371E-03
   7.835  0.169E-01  0.319E-02  0.251E-02  0.272E-02  0.272E-02  0.251E-02  0.319E-02
   7.837  0.215E-01  0.403E-02  0.341E-02  0.332E-02  0.332E-02  0.341E-02  0.403E-02
   7.839  0.563E-02  0.114E-02  0.923E-03  0.749E-03  0.749E-03  0.923E-03  0.114E-02
   7.841  0.515E-01  0.125E-01  0.812E-02  0.509E-02  0.509E-02  0.812E-02  0.125E-01
   7.843  0.239E+00  0.571E-01  0.396E-01  0.229E-01  0.229E-01  0.396E-01  0.571E-01
   7.845  0.171E+00  0.397E-01  0.295E-01  0.164E-01  0.164E-01  0.295E-01  0.397E-01
   7.847  0.239E-01  0.519E-02  0.413E-02  0.263E-02  0.263E-02  0.413E-02  0.519E-02
   7.849  0.115E-01  0.306E-02  0.140E-02  0.129E-02  0.129E-02  0.140E-02  0.306E-02
   7.851  0.775E-01  0.213E-01  0.903E-02  0.841E-02  0.841E-02  0.903E-02  0.213E-01
   7.853  0.784E-01  0.217E-01  0.910E-02  0.846E-02  0.846E-02  0.910E-02  0.217E-01
   7.855  0.108E-01  0.299E-02  0.125E-02  0.116E-02  0.116E-02  0.125E-02  0.299E-02
   7.857  0.202E-03  0.561E-04  0.233E-04  0.217E-04  0.217E-04  0.233E-04  0.561E-04
   7.859  0.176E-05  0.454E-06  0.208E-06  0.217E-06  0.217E-06  0.208E-06  0.454E-06
   7.861  0.441E-03  0.110E-03  0.526E-04  0.573E-04  0.573E-04  0.526E-04  0.110E-03
   7.863  0.211E-01  0.528E-02  0.252E-02  0.275E-02  0.275E-02  0.252E-02  0.528E-02
   7.865  0.137E+00  0.342E-01  0.163E-01  0.178E-01  0.178E-01  0.163E-01  0.342E-01
   7.867  0.128E+00  0.321E-01  0.154E-01  0.164E-01  0.164E-01  0.154E-01  0.321E-01
   7.869  0.943E-01  0.241E-01  0.127E-01  0.104E-01  0.104E-01  0.127E-01  0.241E-01
   7.871  0.109E+00  0.279E-01  0.151E-01  0.116E-01  0.116E-01  0.151E-01  0.279E-01
   7.873  0.422E-01  0.995E-02  0.731E-02  0.386E-02  0.386E-02  0.731E-02  0.995E-02
   7.875  0.131E+00  0.286E-01  0.268E-01  0.102E-01  0.102E-01  0.268E-01  0.286E-01
   7.877  0.115E+00  0.257E-01  0.224E-01  0.927E-02  0.927E-02  0.224E-01  0.257E-01
   7.879  0.938E-01  0.255E-01  0.117E-01  0.966E-02  0.966E-02  0.117E-01  0.255E-01
   7.881  0.147E+00  0.432E-01  0.152E-01  0.150E-01  0.150E-01  0.152E-01  0.432E-01
   7.883  0.155E+00  0.479E-01  0.145E-01  0.153E-01  0.153E-01  0.145E-01  0.479E-01
   7.885  0.383E-01  0.119E-01  0.352E-02  0.376E-02  0.376E-02  0.352E-02  0.119E-01
   7.887  0.134E-02  0.416E-03  0.123E-03  0.132E-03  0.132E-03  0.123E-03  0.416E-03
   7.889  0.638E-05  0.198E-05  0.586E-06  0.626E-06  0.626E-06  0.586E-06  0.198E-05
   7.891  0.413E-08  0.128E-08  0.381E-09  0.406E-09  0.406E-09  0.381E-09  0.128E-08
   7.893  0.122E-06  0.314E-07  0.167E-07  0.128E-07  0.128E-07  0.167E-07  0.314E-07
   7.895  0.763E-04  0.196E-04  0.105E-04  0.802E-05  0.802E-05  0.105E-04  0.196E-04
   7.897  0.646E-02  0.166E-02  0.887E-03  0.679E-03  0.679E-03  0.887E-03  0.166E-02
   7.899  0.740E-01  0.190E-01  0.102E-01  0.778E-02  0.778E-02  0.102E-01  0.190E-01
   7.901  0.115E+00  0.295E-01  0.158E-01  0.121E-01  0.121E-01  0.158E-01  0.295E-01
   7.903  0.293E-01  0.799E-02  0.355E-02  0.313E-02  0.313E-02  0.355E-02  0.799E-02
   7.905  0.719E-01  0.245E-01  0.331E-02  0.815E-02  0.815E-02  0.331E-02  0.245E-01
   7.907  0.135E+00  0.457E-01  0.665E-02  0.152E-01  0.152E-01  0.665E-02  0.457E-01
   7.909  0.124E+00  0.333E-01  0.170E-01  0.118E-01  0.118E-01  0.170E-01  0.333E-01
   7.911  0.249E+00  0.588E-01  0.445E-01  0.212E-01  0.212E-01  0.445E-01  0.588E-01
   7.913  0.947E-01  0.218E-01  0.178E-01  0.773E-02  0.773E-02  0.178E-01  0.218E-01
   7.915  0.508E-02  0.114E-02  0.994E-03  0.401E-03  0.401E-03  0.994E-03  0.114E-02
   7.917  0.379E-04  0.839E-05  0.764E-05  0.292E-05  0.292E-05  0.764E-05  0.839E-05
   7.919  0.391E-07  0.855E-08  0.805E-08  0.295E-08  0.295E-08  0.805E-08  0.855E-08
   7.921  0.555E-11  0.120E-11  0.116E-11  0.413E-12  0.413E-12  0.116E-11  0.120E-11
   7.923  0.649E-13  0.168E-13  0.889E-14  0.674E-14  0.674E-14  0.889E-14  0.168E-13
   7.925  0.994E-09  0.258E-09  0.136E-09  0.103E-09  0.103E-09  0.136E-09  0.258E-09
   7.927  0.206E-05  0.535E-06  0.282E-06  0.215E-06  0.215E-06  0.282E-06  0.535E-06
   7.929  0.580E-03  0.150E-03  0.794E-04  0.603E-04  0.603E-04  0.794E-04  0.150E-03
   7.931  0.221E-01  0.572E-02  0.302E-02  0.229E-02  0.229E-02  0.302E-02  0.572E-02
   7.933  0.114E+00  0.294E-01  0.155E-01  0.118E-01  0.118E-01  0.155E-01  0.294E-01
   7.935  0.825E-01  0.214E-01  0.112E-01  0.868E-02  0.868E-02  0.112E-01  0.214E-01
   7.937  0.710E-01  0.181E-01  0.835E-02  0.909E-02  0.909E-02  0.835E-02  0.181E-01
   7.939  0.160E+00  0.405E-01  0.184E-01  0.209E-01  0.209E-01  0.184E-01  0.405E-01
   7.941  0.586E-01  0.150E-01  0.677E-02  0.755E-02  0.755E-02  0.677E-02  0.150E-01
   7.943  0.548E-01  0.150E-01  0.646E-02  0.592E-02  0.592E-02  0.646E-02  0.150E-01
   7.945  0.834E-01  0.229E-01  0.996E-02  0.888E-02  0.888E-02  0.996E-02  0.229E-01
   7.947  0.525E-01  0.121E-01  0.997E-02  0.420E-02  0.420E-02  0.997E-02  0.121E-01
   7.949  0.157E+00  0.327E-01  0.354E-01  0.104E-01  0.104E-01  0.354E-01  0.327E-01
   7.951  0.947E-01  0.197E-01  0.214E-01  0.629E-02  0.629E-02  0.214E-01  0.197E-01
   7.953  0.776E-02  0.161E-02  0.175E-02  0.515E-03  0.515E-03  0.175E-02  0.161E-02
   7.955  0.860E-04  0.179E-04  0.194E-04  0.571E-05  0.571E-05  0.194E-04  0.179E-04
   7.957  0.170E-05  0.519E-06  0.170E-06  0.163E-06  0.163E-06  0.170E-06  0.519E-06
   7.959  0.512E-03  0.159E-03  0.469E-04  0.505E-04  0.505E-04  0.469E-04  0.159E-03
   7.961  0.236E-01  0.713E-02  0.234E-02  0.235E-02  0.235E-02  0.234E-02  0.713E-02
   7.963  0.175E+00  0.480E-01  0.216E-01  0.180E-01  0.180E-01  0.216E-01  0.480E-01
   7.965  0.301E+00  0.658E-01  0.516E-01  0.332E-01  0.332E-01  0.516E-01  0.658E-01
   7.967  0.260E+00  0.473E-01  0.524E-01  0.301E-01  0.301E-01  0.524E-01  0.473E-01
   7.969  0.303E+00  0.612E-01  0.574E-01  0.331E-01  0.331E-01  0.574E-01  0.612E-01
   7.971  0.190E+00  0.406E-01  0.340E-01  0.202E-01  0.202E-01  0.340E-01  0.406E-01
   7.973  0.641E-01  0.120E-01  0.124E-01  0.770E-02  0.770E-02  0.124E-01  0.120E-01
   7.975  0.128E+00  0.221E-01  0.259E-01  0.162E-01  0.162E-01  0.259E-01  0.221E-01
   7.977  0.737E-01  0.128E-01  0.153E-01  0.877E-02  0.877E-02  0.153E-01  0.128E-01
   7.979  0.178E+00  0.338E-01  0.366E-01  0.187E-01  0.187E-01  0.366E-01  0.338E-01
   7.981  0.202E+00  0.430E-01  0.366E-01  0.213E-01  0.213E-01  0.366E-01  0.430E-01
   7.983  0.411E-01  0.989E-02  0.632E-02  0.437E-02  0.437E-02  0.632E-02  0.989E-02
   7.985  0.260E-02  0.582E-03  0.429E-03  0.287E-03  0.287E-03  0.429E-03  0.582E-03
   7.987  0.430E-01  0.790E-02  0.905E-02  0.455E-02  0.455E-02  0.905E-02  0.790E-02
   7.989  0.242E+00  0.456E-01  0.525E-01  0.227E-01  0.227E-01  0.525E-01  0.456E-01
   7.991  0.206E+00  0.399E-01  0.462E-01  0.171E-01  0.171E-01  0.462E-01  0.399E-01
   7.993  0.592E-01  0.107E-01  0.137E-01  0.521E-02  0.521E-02  0.137E-01  0.107E-01
   7.995  0.161E+00  0.271E-01  0.376E-01  0.159E-01  0.159E-01  0.376E-01  0.271E-01
   7.997  0.105E+00  0.176E-01  0.245E-01  0.104E-01  0.104E-01  0.245E-01  0.176E-01
   7.999  0.931E-02  0.156E-02  0.217E-02  0.921E-03  0.921E-03  0.217E-02  0.156E-02
   8.001  0.112E-03  0.187E-04  0.260E-04  0.110E-04  0.110E-04  0.260E-04  0.187E-04
   8.003  0.130E-04  0.335E-05  0.181E-05  0.134E-05  0.134E-05  0.181E-05  0.335E-05
   8.005  0.222E-02  0.562E-03  0.312E-03  0.234E-03  0.234E-03  0.312E-03  0.562E-03
   8.007  0.557E-01  0.136E-01  0.818E-02  0.611E-02  0.611E-02  0.818E-02  0.136E-01
   8.009  0.215E+00  0.489E-01  0.337E-01  0.250E-01  0.250E-01  0.337E-01  0.489E-01
   8.011  0.140E+00  0.295E-01  0.232E-01  0.175E-01  0.175E-01  0.232E-01  0.295E-01
   8.013  0.110E+00  0.265E-01  0.144E-01  0.140E-01  0.140E-01  0.144E-01  0.265E-01
   8.015  0.296E+00  0.686E-01  0.455E-01  0.339E-01  0.339E-01  0.455E-01  0.686E-01
   8.017  0.339E+00  0.835E-01  0.504E-01  0.355E-01  0.355E-01  0.504E-01  0.835E-01
   8.019  0.167E+00  0.469E-01  0.188E-01  0.178E-01  0.178E-01  0.188E-01  0.469E-01
   8.021  0.658E-01  0.182E-01  0.766E-02  0.707E-02  0.707E-02  0.766E-02  0.182E-01
   8.023  0.740E-02  0.202E-02  0.888E-03  0.794E-03  0.794E-03  0.888E-03  0.202E-02
   8.025  0.122E-03  0.332E-04  0.147E-04  0.131E-04  0.131E-04  0.147E-04  0.332E-04
   8.027  0.168E-03  0.333E-04  0.415E-04  0.925E-05  0.925E-05  0.415E-04  0.333E-04
   8.029  0.122E-01  0.242E-02  0.302E-02  0.671E-03  0.671E-03  0.302E-02  0.242E-02
   8.031  0.120E+00  0.239E-01  0.297E-01  0.662E-02  0.662E-02  0.297E-01  0.239E-01
   8.033  0.167E+00  0.329E-01  0.408E-01  0.977E-02  0.977E-02  0.408E-01  0.329E-01
   8.035  0.946E-01  0.172E-01  0.190E-01  0.111E-01  0.111E-01  0.190E-01  0.172E-01
   8.037  0.891E-01  0.155E-01  0.163E-01  0.128E-01  0.128E-01  0.163E-01  0.155E-01
   8.039  0.523E-01  0.877E-02  0.119E-01  0.549E-02  0.549E-02  0.119E-01  0.877E-02
   8.041  0.176E+00  0.290E-01  0.435E-01  0.155E-01  0.155E-01  0.435E-01  0.290E-01
   8.043  0.115E+00  0.192E-01  0.283E-01  0.101E-01  0.101E-01  0.283E-01  0.192E-01
   8.045  0.503E-01  0.144E-01  0.593E-02  0.484E-02  0.484E-02  0.593E-02  0.144E-01
   8.047  0.142E+00  0.449E-01  0.123E-01  0.140E-01  0.140E-01  0.123E-01  0.449E-01
   8.049  0.102E+00  0.304E-01  0.104E-01  0.101E-01  0.101E-01  0.104E-01  0.304E-01
   8.051  0.132E+00  0.352E-01  0.174E-01  0.132E-01  0.132E-01  0.174E-01  0.352E-01
   8.053  0.626E-01  0.166E-01  0.837E-02  0.628E-02  0.628E-02  0.837E-02  0.166E-01
   8.055  0.416E-02  0.111E-02  0.556E-03  0.418E-03  0.418E-03  0.556E-03  0.111E-02
   8.057  0.803E-03  0.217E-03  0.981E-04  0.859E-04  0.859E-04  0.981E-04  0.217E-03
   8.059  0.207E-01  0.562E-02  0.252E-02  0.223E-02  0.223E-02  0.252E-02  0.562E-02
   8.061  0.760E-01  0.206E-01  0.925E-02  0.816E-02  0.816E-02  0.925E-02  0.206E-01
   8.063  0.379E-01  0.102E-01  0.462E-02  0.408E-02  0.408E-02  0.462E-02  0.102E-01
   8.065  0.124E-01  0.241E-02  0.203E-02  0.176E-02  0.176E-02  0.203E-02  0.241E-02
   8.067  0.794E-01  0.138E-01  0.145E-01  0.114E-01  0.114E-01  0.145E-01  0.138E-01
   8.069  0.177E+00  0.296E-01  0.394E-01  0.193E-01  0.193E-01  0.394E-01  0.296E-01
   8.071  0.199E+00  0.325E-01  0.500E-01  0.169E-01  0.169E-01  0.500E-01  0.325E-01
   8.073  0.921E-01  0.164E-01  0.236E-01  0.602E-02  0.602E-02  0.236E-01  0.164E-01
   8.075  0.185E+00  0.357E-01  0.477E-01  0.920E-02  0.920E-02  0.477E-01  0.357E-01
   8.077  0.968E-01  0.187E-01  0.249E-01  0.478E-02  0.478E-02  0.249E-01  0.187E-01
   8.079  0.690E-02  0.133E-02  0.178E-02  0.341E-03  0.341E-03  0.178E-02  0.133E-02
   8.081  0.666E-04  0.128E-04  0.172E-04  0.329E-05  0.329E-05  0.172E-04  0.128E-04
   8.083  0.871E-07  0.168E-07  0.224E-07  0.432E-08  0.432E-08  0.224E-07  0.168E-07
   8.085  0.447E-06  0.117E-06  0.469E-07  0.595E-07  0.595E-07  0.469E-07  0.117E-06
   8.087  0.205E-03  0.536E-04  0.215E-04  0.273E-04  0.273E-04  0.215E-04  0.536E-04
   8.089  0.127E-01  0.333E-02  0.134E-02  0.170E-02  0.170E-02  0.134E-02  0.333E-02
   8.091  0.107E+00  0.280E-01  0.113E-01  0.143E-01  0.143E-01  0.113E-01  0.280E-01
   8.093  0.128E+00  0.336E-01  0.137E-01  0.169E-01  0.169E-01  0.137E-01  0.336E-01
   8.095  0.951E-01  0.254E-01  0.121E-01  0.101E-01  0.101E-01  0.121E-01  0.254E-01
   8.097  0.123E+00  0.329E-01  0.163E-01  0.122E-01  0.122E-01  0.163E-01  0.329E-01
   8.099  0.344E-01  0.837E-02  0.558E-02  0.323E-02  0.323E-02  0.558E-02  0.837E-02
   8.101  0.113E+00  0.184E-01  0.290E-01  0.895E-02  0.895E-02  0.290E-01  0.184E-01
   8.103  0.274E+00  0.480E-01  0.634E-01  0.257E-01  0.257E-01  0.634E-01  0.480E-01
   8.105  0.199E+00  0.411E-01  0.348E-01  0.237E-01  0.237E-01  0.348E-01  0.411E-01
   8.107  0.424E-01  0.967E-02  0.618E-02  0.534E-02  0.534E-02  0.618E-02  0.967E-02
   8.109  0.157E-02  0.375E-03  0.215E-03  0.193E-03  0.193E-03  0.215E-03  0.375E-03
   8.111  0.849E-05  0.209E-05  0.115E-05  0.100E-05  0.100E-05  0.115E-05  0.209E-05
   8.113  0.840E-04  0.157E-04  0.225E-04  0.371E-05  0.371E-05  0.225E-04  0.157E-04
   8.115  0.812E-02  0.152E-02  0.218E-02  0.359E-03  0.359E-03  0.218E-02  0.152E-02
   8.117  0.106E+00  0.199E-01  0.285E-01  0.470E-02  0.470E-02  0.285E-01  0.199E-01
   8.119  0.188E+00  0.353E-01  0.506E-01  0.832E-02  0.832E-02  0.506E-01  0.353E-01
   8.121  0.452E-01  0.847E-02  0.121E-01  0.200E-02  0.200E-02  0.121E-01  0.847E-02
   8.123  0.229E-02  0.559E-03  0.432E-03  0.156E-03  0.156E-03  0.432E-03  0.559E-03
   8.125  0.274E-01  0.943E-02  0.127E-02  0.301E-02  0.301E-02  0.127E-02  0.943E-02
   8.127  0.123E+00  0.423E-01  0.569E-02  0.135E-01  0.135E-01  0.569E-02  0.423E-01
   8.129  0.834E-01  0.285E-01  0.418E-02  0.907E-02  0.907E-02  0.418E-02  0.285E-01
   8.131  0.957E-01  0.307E-01  0.767E-02  0.949E-02  0.949E-02  0.767E-02  0.307E-01
   8.133  0.127E+00  0.398E-01  0.114E-01  0.124E-01  0.124E-01  0.114E-01  0.398E-01
   8.135  0.108E+00  0.208E-01  0.253E-01  0.819E-02  0.819E-02  0.253E-01  0.208E-01
   8.137  0.209E+00  0.330E-01  0.569E-01  0.145E-01  0.145E-01  0.569E-01  0.330E-01
   8.139  0.741E-01  0.125E-01  0.189E-01  0.563E-02  0.563E-02  0.189E-01  0.125E-01
   8.141  0.734E-01  0.214E-01  0.452E-02  0.108E-01  0.108E-01  0.452E-02  0.214E-01
   8.143  0.261E+00  0.735E-01  0.204E-01  0.366E-01  0.366E-01  0.204E-01  0.735E-01
   8.145  0.317E+00  0.821E-01  0.339E-01  0.423E-01  0.423E-01  0.339E-01  0.821E-01
   8.147  0.129E+00  0.339E-01  0.125E-01  0.181E-01  0.181E-01  0.125E-01  0.339E-01
   8.149  0.178E+00  0.520E-01  0.116E-01  0.254E-01  0.254E-01  0.116E-01  0.520E-01
   8.151  0.117E+00  0.331E-01  0.103E-01  0.151E-01  0.151E-01  0.103E-01  0.331E-01
   8.153  0.173E-01  0.475E-02  0.182E-02  0.205E-02  0.205E-02  0.182E-02  0.475E-02
   8.155  0.278E-01  0.830E-02  0.133E-02  0.425E-02  0.425E-02  0.133E-02  0.830E-02
   8.157  0.120E+00  0.358E-01  0.615E-02  0.182E-01  0.182E-01  0.615E-02  0.358E-01
   8.159  0.148E+00  0.370E-01  0.215E-01  0.155E-01  0.155E-01  0.215E-01  0.370E-01
   8.161  0.213E+00  0.398E-01  0.572E-01  0.947E-02  0.947E-02  0.572E-01  0.398E-01
   8.163  0.885E-01  0.161E-01  0.247E-01  0.350E-02  0.350E-02  0.247E-01  0.161E-01
   8.165  0.668E-02  0.138E-02  0.153E-02  0.432E-03  0.432E-03  0.153E-02  0.138E-02
   8.167  0.322E-01  0.947E-02  0.175E-02  0.489E-02  0.489E-02  0.175E-02  0.947E-02
   8.169  0.173E+00  0.486E-01  0.132E-01  0.247E-01  0.247E-01  0.132E-01  0.486E-01
   8.171  0.348E+00  0.820E-01  0.519E-01  0.399E-01  0.399E-01  0.519E-01  0.820E-01
   8.173  0.264E+00  0.481E-01  0.624E-01  0.213E-01  0.213E-01  0.624E-01  0.481E-01
   8.175  0.482E-01  0.776E-02  0.131E-01  0.323E-02  0.323E-02  0.131E-01  0.776E-02
   8.177  0.141E-02  0.220E-03  0.395E-03  0.901E-04  0.901E-04  0.395E-03  0.220E-03
   8.179  0.113E-03  0.323E-04  0.730E-05  0.169E-04  0.169E-04  0.730E-05  0.323E-04
   8.181  0.575E-02  0.168E-02  0.302E-03  0.888E-03  0.888E-03  0.302E-03  0.168E-02
   8.183  0.491E-01  0.145E-01  0.251E-02  0.758E-02  0.758E-02  0.251E-02  0.145E-01
   8.185  0.107E+00  0.319E-01  0.515E-02  0.165E-01  0.165E-01  0.515E-02  0.319E-01
   8.187  0.899E-01  0.245E-01  0.631E-02  0.142E-01  0.142E-01  0.631E-02  0.245E-01
   8.189  0.759E-01  0.144E-01  0.108E-01  0.127E-01  0.127E-01  0.108E-01  0.144E-01
   8.191  0.303E-01  0.540E-02  0.466E-02  0.511E-02  0.511E-02  0.466E-02  0.540E-02
   8.193  0.196E-01  0.518E-02  0.260E-02  0.205E-02  0.205E-02  0.260E-02  0.518E-02
   8.195  0.123E+00  0.334E-01  0.159E-01  0.121E-01  0.121E-01  0.159E-01  0.334E-01
   8.197  0.154E+00  0.416E-01  0.198E-01  0.157E-01  0.157E-01  0.198E-01  0.416E-01
   8.199  0.655E-01  0.164E-01  0.101E-01  0.621E-02  0.621E-02  0.101E-01  0.164E-01
   8.201  0.162E+00  0.318E-01  0.399E-01  0.924E-02  0.924E-02  0.399E-01  0.318E-01
   8.203  0.261E+00  0.537E-01  0.595E-01  0.173E-01  0.173E-01  0.595E-01  0.537E-01
   8.205  0.144E+00  0.371E-01  0.183E-01  0.167E-01  0.167E-01  0.183E-01  0.371E-01
   8.207  0.161E+00  0.303E-01  0.370E-01  0.130E-01  0.130E-01  0.370E-01  0.303E-01
   8.209  0.211E+00  0.323E-01  0.611E-01  0.122E-01  0.122E-01  0.611E-01  0.323E-01
   8.211  0.494E-01  0.747E-02  0.144E-01  0.279E-02  0.279E-02  0.144E-01  0.747E-02
   8.213  0.180E-02  0.308E-03  0.479E-03  0.110E-03  0.110E-03  0.479E-03  0.308E-03
   8.215  0.125E-01  0.403E-02  0.991E-03  0.124E-02  0.124E-02  0.991E-03  0.403E-02
   8.217  0.988E-01  0.318E-01  0.780E-02  0.975E-02  0.975E-02  0.780E-02  0.318E-01
   8.219  0.106E+00  0.340E-01  0.833E-02  0.104E-01  0.104E-01  0.833E-02  0.340E-01
   8.221  0.178E-01  0.563E-02  0.136E-02  0.190E-02  0.190E-02  0.136E-02  0.563E-02
   8.223  0.271E-01  0.766E-02  0.163E-02  0.424E-02  0.424E-02  0.163E-02  0.766E-02
   8.225  0.459E-01  0.131E-01  0.264E-02  0.719E-02  0.719E-02  0.264E-02  0.131E-01
   8.227  0.734E-01  0.219E-01  0.347E-02  0.113E-01  0.113E-01  0.347E-02  0.219E-01
   8.229  0.756E-01  0.227E-01  0.347E-02  0.116E-01  0.116E-01  0.347E-02  0.227E-01
   8.231  0.123E-01  0.371E-02  0.577E-03  0.187E-02  0.187E-02  0.577E-03  0.371E-02
   8.233  0.281E-01  0.860E-02  0.198E-02  0.348E-02  0.348E-02  0.198E-02  0.860E-02
   8.235  0.161E+00  0.473E-01  0.124E-01  0.206E-01  0.206E-01  0.124E-01  0.473E-01
   8.237  0.130E+00  0.364E-01  0.114E-01  0.171E-01  0.171E-01  0.114E-01  0.364E-01
   8.239  0.598E-01  0.115E-01  0.150E-01  0.339E-02  0.339E-02  0.150E-01  0.115E-01
   8.241  0.225E+00  0.375E-01  0.678E-01  0.737E-02  0.737E-02  0.678E-01  0.375E-01
   8.243  0.297E+00  0.470E-01  0.887E-01  0.127E-01  0.127E-01  0.887E-01  0.470E-01
   8.245  0.233E+00  0.396E-01  0.630E-01  0.140E-01  0.140E-01  0.630E-01  0.396E-01
   8.247  0.105E+00  0.248E-01  0.172E-01  0.103E-01  0.103E-01  0.172E-01  0.248E-01
   8.249  0.230E+00  0.625E-01  0.242E-01  0.281E-01  0.281E-01  0.242E-01  0.625E-01
   8.251  0.253E+00  0.691E-01  0.267E-01  0.309E-01  0.309E-01  0.267E-01  0.691E-01
   8.253  0.837E-01  0.240E-01  0.632E-02  0.116E-01  0.116E-01  0.632E-02  0.240E-01
   8.255  0.925E-01  0.277E-01  0.442E-02  0.142E-01  0.142E-01  0.442E-02  0.277E-01
   8.257  0.260E-01  0.778E-02  0.123E-02  0.398E-02  0.398E-02  0.123E-02  0.778E-02
   8.259  0.996E-03  0.298E-03  0.470E-04  0.153E-03  0.153E-03  0.470E-04  0.298E-03
   8.261  0.517E-05  0.155E-05  0.244E-06  0.792E-06  0.792E-06  0.244E-06  0.155E-05
   8.263  0.363E-08  0.109E-08  0.171E-09  0.556E-09  0.556E-09  0.171E-09  0.109E-08
   8.265  0.345E-12  0.103E-12  0.163E-13  0.529E-13  0.529E-13  0.163E-13  0.103E-12
   8.267  0.474E-13  0.770E-14  0.143E-13  0.166E-14  0.166E-14  0.143E-13  0.770E-14
   8.269  0.953E-09  0.155E-09  0.287E-09  0.350E-10  0.350E-10  0.287E-09  0.155E-09
   8.271  0.263E-05  0.428E-06  0.788E-06  0.101E-06  0.101E-06  0.788E-06  0.428E-06
   8.273  0.100E-02  0.162E-03  0.298E-03  0.404E-04  0.404E-04  0.298E-03  0.162E-03
   8.275  0.524E-01  0.849E-02  0.155E-01  0.222E-02  0.222E-02  0.155E-01  0.849E-02
   8.277  0.379E+00  0.612E-01  0.111E+00  0.168E-01  0.168E-01  0.111E+00  0.612E-01
   8.279  0.378E+00  0.609E-01  0.111E+00  0.174E-01  0.174E-01  0.111E+00  0.609E-01
   8.281  0.547E-01  0.900E-02  0.154E-01  0.294E-02  0.294E-02  0.154E-01  0.900E-02
   8.283  0.555E-01  0.136E-01  0.519E-02  0.900E-02  0.900E-02  0.519E-02  0.136E-01
   8.285  0.150E+00  0.380E-01  0.126E-01  0.243E-01  0.243E-01  0.126E-01  0.380E-01
   8.287  0.566E-01  0.147E-01  0.445E-02  0.910E-02  0.910E-02  0.445E-02  0.147E-01
   8.289  0.293E-02  0.782E-03  0.216E-03  0.468E-03  0.468E-03  0.216E-03  0.782E-03
   8.291  0.242E-03  0.635E-04  0.301E-04  0.276E-04  0.276E-04  0.301E-04  0.635E-04
   8.293  0.889E-02  0.232E-02  0.115E-02  0.974E-03  0.974E-03  0.115E-02  0.232E-02
   8.295  0.483E-01  0.126E-01  0.626E-02  0.529E-02  0.529E-02  0.626E-02  0.126E-01
   8.297  0.355E-01  0.927E-02  0.460E-02  0.389E-02  0.389E-02  0.460E-02  0.927E-02
   8.299  0.431E-02  0.117E-02  0.516E-03  0.464E-03  0.464E-03  0.516E-03  0.117E-02
   8.301  0.257E-01  0.837E-02  0.194E-02  0.255E-02  0.255E-02  0.194E-02  0.837E-02
   8.303  0.116E+00  0.378E-01  0.881E-02  0.115E-01  0.115E-01  0.881E-02  0.378E-01
   8.305  0.981E-01  0.305E-01  0.898E-02  0.962E-02  0.962E-02  0.898E-02  0.305E-01
   8.307  0.172E+00  0.430E-01  0.283E-01  0.149E-01  0.149E-01  0.283E-01  0.430E-01
   8.309  0.400E+00  0.718E-01  0.106E+00  0.223E-01  0.223E-01  0.106E+00  0.718E-01
   8.311  0.423E+00  0.662E-01  0.129E+00  0.163E-01  0.163E-01  0.129E+00  0.662E-01
   8.313  0.918E-01  0.142E-01  0.289E-01  0.285E-02  0.285E-02  0.289E-01  0.142E-01
   8.315  0.411E-02  0.759E-03  0.108E-02  0.220E-03  0.220E-03  0.108E-02  0.759E-03
   8.317  0.245E-01  0.729E-02  0.126E-02  0.373E-02  0.373E-02  0.126E-02  0.729E-02
   8.319  0.939E-01  0.279E-01  0.480E-02  0.143E-01  0.143E-01  0.480E-02  0.279E-01
   8.321  0.486E-01  0.144E-01  0.249E-02  0.739E-02  0.739E-02  0.249E-02  0.144E-01
   8.323  0.342E-02  0.101E-02  0.175E-03  0.519E-03  0.519E-03  0.175E-03  0.101E-02
   8.325  0.121E-02  0.333E-03  0.103E-03  0.169E-03  0.169E-03  0.103E-03  0.333E-03
   8.327  0.322E-01  0.884E-02  0.278E-02  0.449E-02  0.449E-02  0.278E-02  0.884E-02
   8.329  0.119E+00  0.327E-01  0.103E-01  0.166E-01  0.166E-01  0.103E-01  0.327E-01
   8.331  0.605E-01  0.165E-01  0.527E-02  0.848E-02  0.848E-02  0.527E-02  0.165E-01
   8.333  0.221E-01  0.427E-02  0.291E-02  0.385E-02  0.385E-02  0.291E-02  0.427E-02
   8.335  0.601E-01  0.102E-01  0.105E-01  0.938E-02  0.938E-02  0.105E-01  0.102E-01
   8.337  0.184E+00  0.285E-01  0.544E-01  0.928E-02  0.928E-02  0.544E-01  0.285E-01
   8.339  0.492E+00  0.876E-01  0.138E+00  0.207E-01  0.207E-01  0.138E+00  0.876E-01
   8.341  0.327E+00  0.672E-01  0.801E-01  0.163E-01  0.163E-01  0.801E-01  0.672E-01
   8.343  0.685E-01  0.160E-01  0.116E-01  0.664E-02  0.664E-02  0.116E-01  0.160E-01
   8.345  0.713E-01  0.181E-01  0.806E-02  0.949E-02  0.949E-02  0.806E-02  0.181E-01
   8.347  0.378E-01  0.972E-02  0.473E-02  0.446E-02  0.446E-02  0.473E-02  0.972E-02
   8.349  0.355E-02  0.916E-03  0.460E-03  0.398E-03  0.398E-03  0.460E-03  0.916E-03
   8.351  0.511E-04  0.133E-04  0.651E-05  0.574E-05  0.574E-05  0.651E-05  0.133E-04
   8.353  0.583E-03  0.172E-03  0.315E-04  0.881E-04  0.881E-04  0.315E-04  0.172E-03
   8.355  0.198E-01  0.586E-02  0.107E-02  0.300E-02  0.300E-02  0.107E-02  0.586E-02
   8.357  0.914E-01  0.270E-01  0.493E-02  0.138E-01  0.138E-01  0.493E-02  0.270E-01
   8.359  0.584E-01  0.170E-01  0.356E-02  0.864E-02  0.864E-02  0.356E-02  0.170E-01
   8.361  0.578E-01  0.858E-02  0.181E-01  0.218E-02  0.218E-02  0.181E-01  0.858E-02
   8.363  0.313E+00  0.429E-01  0.105E+00  0.814E-02  0.814E-02  0.105E+00  0.429E-01
   8.365  0.382E+00  0.549E-01  0.127E+00  0.977E-02  0.977E-02  0.127E+00  0.549E-01
   8.367  0.188E+00  0.397E-01  0.432E-01  0.113E-01  0.113E-01  0.432E-01  0.397E-01
   8.369  0.118E+00  0.323E-01  0.158E-01  0.111E-01  0.111E-01  0.158E-01  0.323E-01
   8.371  0.184E-01  0.510E-02  0.234E-02  0.178E-02  0.178E-02  0.234E-02  0.510E-02
   8.373  0.401E-03  0.111E-03  0.508E-04  0.387E-04  0.387E-04  0.508E-04  0.111E-03
   8.375  0.225E-05  0.580E-06  0.244E-06  0.302E-06  0.302E-06  0.244E-06  0.580E-06
   8.377  0.237E-03  0.560E-04  0.210E-04  0.414E-04  0.414E-04  0.210E-04  0.560E-04
   8.379  0.724E-02  0.169E-02  0.684E-03  0.124E-02  0.124E-02  0.684E-03  0.169E-02
   8.381  0.436E-01  0.876E-02  0.767E-02  0.538E-02  0.538E-02  0.767E-02  0.876E-02
   8.383  0.219E+00  0.313E-01  0.698E-01  0.863E-02  0.863E-02  0.698E-01  0.313E-01
   8.385  0.503E+00  0.741E-01  0.158E+00  0.193E-01  0.193E-01  0.158E+00  0.741E-01
   8.387  0.314E+00  0.643E-01  0.729E-01  0.196E-01  0.196E-01  0.729E-01  0.643E-01
   8.389  0.783E-01  0.229E-01  0.915E-02  0.706E-02  0.706E-02  0.915E-02  0.229E-01
   8.391  0.537E-02  0.173E-02  0.432E-03  0.528E-03  0.528E-03  0.432E-03  0.173E-02
   8.393  0.622E-02  0.160E-02  0.825E-03  0.690E-03  0.690E-03  0.825E-03  0.160E-02
   8.395  0.376E-01  0.964E-02  0.499E-02  0.418E-02  0.418E-02  0.499E-02  0.964E-02
   8.397  0.522E-01  0.130E-01  0.745E-02  0.568E-02  0.568E-02  0.745E-02  0.130E-01
   8.399  0.239E+00  0.454E-01  0.576E-01  0.162E-01  0.162E-01  0.576E-01  0.454E-01
   8.401  0.528E+00  0.805E-01  0.164E+00  0.195E-01  0.195E-01  0.164E+00  0.805E-01
   8.403  0.224E+00  0.311E-01  0.754E-01  0.558E-02  0.558E-02  0.754E-01  0.311E-01
   8.405  0.519E-01  0.122E-01  0.823E-02  0.549E-02  0.549E-02  0.823E-02  0.122E-01
   8.407  0.111E+00  0.308E-01  0.891E-02  0.157E-01  0.157E-01  0.891E-02  0.308E-01
   8.409  0.576E-01  0.142E-01  0.799E-02  0.664E-02  0.664E-02  0.799E-02  0.142E-01
   8.411  0.209E+00  0.274E-01  0.726E-01  0.426E-02  0.426E-02  0.726E-01  0.274E-01
   8.413  0.474E+00  0.614E-01  0.167E+00  0.894E-02  0.894E-02  0.167E+00  0.614E-01
   8.415  0.153E+00  0.199E-01  0.539E-01  0.287E-02  0.287E-02  0.539E-01  0.199E-01
   8.417  0.714E-01  0.924E-02  0.250E-01  0.144E-02  0.144E-02  0.250E-01  0.924E-02
   8.419  0.454E+00  0.595E-01  0.157E+00  0.104E-01  0.104E-01  0.157E+00  0.595E-01
   8.421  0.760E+00  0.998E-01  0.262E+00  0.180E-01  0.180E-01  0.262E+00  0.998E-01
   8.423  0.682E+00  0.878E-01  0.240E+00  0.134E-01  0.134E-01  0.240E+00  0.878E-01
   8.425  0.254E+00  0.324E-01  0.901E-01  0.459E-02  0.459E-02  0.901E-01  0.324E-01
   8.427  0.234E+00  0.298E-01  0.831E-01  0.421E-02  0.421E-02  0.831E-01  0.298E-01
   8.429  0.157E+00  0.217E-01  0.529E-01  0.374E-02  0.374E-02  0.529E-01  0.217E-01
   8.431  0.128E+00  0.313E-01  0.226E-01  0.102E-01  0.102E-01  0.226E-01  0.313E-01
   8.433  0.272E+00  0.516E-01  0.700E-01  0.143E-01  0.143E-01  0.700E-01  0.516E-01
   8.435  0.257E+00  0.370E-01  0.809E-01  0.107E-01  0.107E-01  0.809E-01  0.370E-01
   8.437  0.118E+00  0.268E-01  0.205E-01  0.117E-01  0.117E-01  0.205E-01  0.268E-01
   8.439  0.112E+00  0.373E-01  0.655E-02  0.121E-01  0.121E-01  0.655E-02  0.373E-01
   8.441  0.692E-01  0.156E-01  0.149E-01  0.406E-02  0.406E-02  0.149E-01  0.156E-01
   8.443  0.226E+00  0.311E-01  0.759E-01  0.610E-02  0.610E-02  0.759E-01  0.311E-01
   8.445  0.262E+00  0.488E-01  0.651E-01  0.171E-01  0.171E-01  0.651E-01  0.488E-01
   8.447  0.120E+00  0.316E-01  0.135E-01  0.151E-01  0.151E-01  0.135E-01  0.316E-01
   8.449  0.162E-01  0.461E-02  0.115E-02  0.232E-02  0.232E-02  0.115E-02  0.461E-02
   8.451  0.108E-02  0.191E-03  0.282E-03  0.649E-04  0.649E-04  0.282E-03  0.191E-03
   8.453  0.326E-01  0.403E-02  0.117E-01  0.586E-03  0.586E-03  0.117E-01  0.403E-02
   8.455  0.198E+00  0.245E-01  0.710E-01  0.357E-02  0.357E-02  0.710E-01  0.245E-01
   8.457  0.163E+00  0.202E-01  0.585E-01  0.296E-02  0.296E-02  0.585E-01  0.202E-01
   8.459  0.231E-01  0.332E-02  0.701E-02  0.124E-02  0.124E-02  0.701E-02  0.332E-02
   8.461  0.236E-01  0.505E-02  0.244E-02  0.429E-02  0.429E-02  0.244E-02  0.505E-02
   8.463  0.148E-01  0.320E-02  0.149E-02  0.272E-02  0.272E-02  0.149E-02  0.320E-02
   8.465  0.500E-02  0.149E-02  0.412E-03  0.597E-03  0.597E-03  0.412E-03  0.149E-02
   8.467  0.606E-01  0.181E-01  0.698E-02  0.524E-02  0.524E-02  0.698E-02  0.181E-01
   8.469  0.222E+00  0.473E-01  0.517E-01  0.119E-01  0.119E-01  0.517E-01  0.473E-01
   8.471  0.244E+00  0.349E-01  0.805E-01  0.642E-02  0.642E-02  0.805E-01  0.349E-01
   8.473  0.526E-01  0.658E-02  0.187E-01  0.102E-02  0.102E-02  0.187E-01  0.658E-02
   8.475  0.166E-02  0.203E-03  0.596E-03  0.303E-04  0.303E-04  0.596E-03  0.203E-03
   8.477  0.457E-04  0.117E-04  0.542E-05  0.567E-05  0.567E-05  0.542E-05  0.117E-04
   8.479  0.383E-02  0.108E-02  0.283E-03  0.552E-03  0.552E-03  0.283E-03  0.108E-02
   8.481  0.530E-01  0.148E-01  0.405E-02  0.769E-02  0.769E-02  0.405E-02  0.148E-01
   8.483  0.148E+00  0.353E-01  0.155E-01  0.231E-01  0.231E-01  0.155E-01  0.353E-01
   8.485  0.346E+00  0.583E-01  0.576E-01  0.569E-01  0.569E-01  0.576E-01  0.583E-01
   8.487  0.517E+00  0.768E-01  0.118E+00  0.633E-01  0.633E-01  0.118E+00  0.768E-01
   8.489  0.412E+00  0.597E-01  0.101E+00  0.456E-01  0.456E-01  0.101E+00  0.597E-01
   8.491  0.216E+00  0.353E-01  0.388E-01  0.340E-01  0.340E-01  0.388E-01  0.353E-01
   8.493  0.125E+00  0.231E-01  0.193E-01  0.202E-01  0.202E-01  0.193E-01  0.231E-01
   8.495  0.217E+00  0.414E-01  0.310E-01  0.363E-01  0.363E-01  0.310E-01  0.414E-01
   8.497  0.292E+00  0.644E-01  0.360E-01  0.458E-01  0.458E-01  0.360E-01  0.644E-01
   8.499  0.224E+00  0.563E-01  0.277E-01  0.281E-01  0.281E-01  0.277E-01  0.563E-01
   8.501  0.174E+00  0.373E-01  0.248E-01  0.250E-01  0.250E-01  0.248E-01  0.373E-01
   8.503  0.126E+00  0.219E-01  0.190E-01  0.223E-01  0.223E-01  0.190E-01  0.219E-01
   8.505  0.168E+00  0.280E-01  0.304E-01  0.254E-01  0.254E-01  0.304E-01  0.280E-01
   8.507  0.267E+00  0.366E-01  0.773E-01  0.195E-01  0.195E-01  0.773E-01  0.366E-01
   8.509  0.216E+00  0.269E-01  0.700E-01  0.109E-01  0.109E-01  0.700E-01  0.269E-01
   8.511  0.119E+00  0.172E-01  0.242E-01  0.180E-01  0.180E-01  0.242E-01  0.172E-01
   8.513  0.390E-01  0.596E-02  0.645E-02  0.708E-02  0.708E-02  0.645E-02  0.596E-02
   8.515  0.485E-01  0.854E-02  0.746E-02  0.824E-02  0.824E-02  0.746E-02  0.854E-02
   8.517  0.146E+00  0.259E-01  0.225E-01  0.248E-01  0.248E-01  0.225E-01  0.259E-01
   8.519  0.726E-01  0.126E-01  0.113E-01  0.125E-01  0.125E-01  0.113E-01  0.126E-01
   8.521  0.752E-01  0.114E-01  0.123E-01  0.139E-01  0.139E-01  0.123E-01  0.114E-01
   8.523  0.667E-01  0.100E-01  0.110E-01  0.124E-01  0.124E-01  0.110E-01  0.100E-01
   8.525  0.929E-02  0.155E-02  0.145E-02  0.165E-02  0.165E-02  0.145E-02  0.155E-02
   8.527  0.321E-01  0.907E-02  0.413E-02  0.285E-02  0.285E-02  0.413E-02  0.907E-02
   8.529  0.238E+00  0.501E-01  0.503E-01  0.185E-01  0.185E-01  0.503E-01  0.501E-01
   8.531  0.418E+00  0.683E-01  0.104E+00  0.361E-01  0.361E-01  0.104E+00  0.683E-01
   8.533  0.219E+00  0.347E-01  0.456E-01  0.294E-01  0.294E-01  0.456E-01  0.347E-01
   8.535  0.456E+00  0.883E-01  0.736E-01  0.662E-01  0.662E-01  0.736E-01  0.883E-01
   8.537  0.156E+01  0.317E+00  0.250E+00  0.212E+00  0.212E+00  0.250E+00  0.317E+00
   8.539  0.160E+01  0.326E+00  0.255E+00  0.217E+00  0.217E+00  0.255E+00  0.326E+00
   8.541  0.104E+01  0.212E+00  0.165E+00  0.141E+00  0.141E+00  0.165E+00  0.212E+00
   8.543  0.757E+00  0.157E+00  0.118E+00  0.104E+00  0.104E+00  0.118E+00  0.157E+00
   8.545  0.790E+00  0.170E+00  0.117E+00  0.107E+00  0.107E+00  0.117E+00  0.170E+00
   8.547  0.765E+00  0.155E+00  0.116E+00  0.111E+00  0.111E+00  0.116E+00  0.155E+00
   8.549  0.585E+00  0.114E+00  0.908E-01  0.881E-01  0.881E-01  0.908E-01  0.114E+00
   8.551  0.675E+00  0.141E+00  0.102E+00  0.937E-01  0.937E-01  0.102E+00  0.141E+00
   8.553  0.486E+00  0.108E+00  0.687E-01  0.666E-01  0.666E-01  0.687E-01  0.108E+00
   8.555  0.484E+00  0.902E-01  0.103E+00  0.488E-01  0.488E-01  0.103E+00  0.902E-01
   8.557  0.717E+00  0.131E+00  0.148E+00  0.797E-01  0.797E-01  0.148E+00  0.131E+00
   8.559  0.329E+00  0.646E-01  0.572E-01  0.430E-01  0.430E-01  0.572E-01  0.646E-01
   8.561  0.179E+00  0.346E-01  0.260E-01  0.286E-01  0.286E-01  0.260E-01  0.346E-01
   8.563  0.280E+00  0.524E-01  0.446E-01  0.429E-01  0.429E-01  0.446E-01  0.524E-01
   8.565  0.545E+00  0.108E+00  0.885E-01  0.764E-01  0.764E-01  0.885E-01  0.108E+00
   8.567  0.464E+00  0.915E-01  0.710E-01  0.695E-01  0.695E-01  0.710E-01  0.915E-01
   8.569  0.213E+00  0.480E-01  0.292E-01  0.291E-01  0.291E-01  0.292E-01  0.480E-01
   8.571  0.249E+00  0.597E-01  0.327E-01  0.320E-01  0.320E-01  0.327E-01  0.597E-01
   8.573  0.377E+00  0.777E-01  0.592E-01  0.516E-01  0.516E-01  0.592E-01  0.777E-01
   8.575  0.382E+00  0.764E-01  0.648E-01  0.500E-01  0.500E-01  0.648E-01  0.764E-01
   8.577  0.186E+00  0.351E-01  0.282E-01  0.297E-01  0.297E-01  0.282E-01  0.351E-01
   8.579  0.171E+00  0.301E-01  0.240E-01  0.314E-01  0.314E-01  0.240E-01  0.301E-01
   8.581  0.916E-01  0.150E-01  0.197E-01  0.111E-01  0.111E-01  0.197E-01  0.150E-01
   8.583  0.389E+00  0.626E-01  0.993E-01  0.326E-01  0.326E-01  0.993E-01  0.626E-01
   8.585  0.628E+00  0.112E+00  0.133E+00  0.700E-01  0.700E-01  0.133E+00  0.112E+00
   8.587  0.270E+00  0.516E-01  0.462E-01  0.371E-01  0.371E-01  0.462E-01  0.516E-01
   8.589  0.174E+00  0.332E-01  0.257E-01  0.282E-01  0.282E-01  0.257E-01  0.332E-01
   8.591  0.108E+00  0.207E-01  0.151E-01  0.183E-01  0.183E-01  0.151E-01  0.207E-01
   8.593  0.113E+00  0.214E-01  0.142E-01  0.208E-01  0.208E-01  0.142E-01  0.214E-01
   8.595  0.268E+00  0.502E-01  0.431E-01  0.407E-01  0.407E-01  0.431E-01  0.502E-01
   8.597  0.385E+00  0.747E-01  0.671E-01  0.506E-01  0.506E-01  0.671E-01  0.747E-01
   8.599  0.178E+00  0.349E-01  0.314E-01  0.228E-01  0.228E-01  0.314E-01  0.349E-01
   8.601  0.665E-01  0.130E-01  0.786E-02  0.125E-01  0.125E-01  0.786E-02  0.130E-01
   8.603  0.568E-01  0.110E-01  0.564E-02  0.117E-01  0.117E-01  0.564E-02  0.110E-01
   8.605  0.109E-01  0.230E-02  0.112E-02  0.205E-02  0.205E-02  0.112E-02  0.230E-02
   8.607  0.707E-01  0.177E-01  0.905E-02  0.864E-02  0.864E-02  0.905E-02  0.177E-01
   8.609  0.376E+00  0.866E-01  0.522E-01  0.492E-01  0.492E-01  0.522E-01  0.866E-01
   8.611  0.721E+00  0.154E+00  0.103E+00  0.103E+00  0.103E+00  0.103E+00  0.154E+00
   8.613  0.764E+00  0.151E+00  0.131E+00  0.996E-01  0.996E-01  0.131E+00  0.151E+00
   8.615  0.548E+00  0.105E+00  0.111E+00  0.588E-01  0.588E-01  0.111E+00  0.105E+00
   8.617  0.236E+00  0.530E-01  0.345E-01  0.308E-01  0.308E-01  0.345E-01  0.530E-01
   8.619  0.155E+00  0.368E-01  0.163E-01  0.245E-01  0.245E-01  0.163E-01  0.368E-01
   8.621  0.200E+00  0.472E-01  0.197E-01  0.333E-01  0.333E-01  0.197E-01  0.472E-01
   8.623  0.363E+00  0.783E-01  0.480E-01  0.551E-01  0.551E-01  0.480E-01  0.783E-01
   8.625  0.332E+00  0.674E-01  0.543E-01  0.443E-01  0.443E-01  0.543E-01  0.674E-01
   8.627  0.266E+00  0.512E-01  0.476E-01  0.342E-01  0.342E-01  0.476E-01  0.512E-01
   8.629  0.214E+00  0.436E-01  0.306E-01  0.327E-01  0.327E-01  0.306E-01  0.436E-01
   8.631  0.130E+00  0.279E-01  0.150E-01  0.221E-01  0.221E-01  0.150E-01  0.279E-01
   8.633  0.549E-01  0.107E-01  0.458E-02  0.122E-01  0.122E-01  0.458E-02  0.107E-01
   8.635  0.311E-01  0.667E-02  0.299E-02  0.590E-02  0.590E-02  0.299E-02  0.667E-02
   8.637  0.130E+00  0.300E-01  0.155E-01  0.195E-01  0.195E-01  0.155E-01  0.300E-01
   8.639  0.274E+00  0.583E-01  0.394E-01  0.395E-01  0.395E-01  0.394E-01  0.583E-01
   8.641  0.387E+00  0.773E-01  0.605E-01  0.556E-01  0.556E-01  0.605E-01  0.773E-01
   8.643  0.416E+00  0.840E-01  0.675E-01  0.568E-01  0.568E-01  0.675E-01  0.840E-01
   8.645  0.415E+00  0.863E-01  0.711E-01  0.503E-01  0.503E-01  0.711E-01  0.863E-01
   8.647  0.402E+00  0.686E-01  0.972E-01  0.352E-01  0.352E-01  0.972E-01  0.686E-01
   8.649  0.171E+00  0.267E-01  0.454E-01  0.134E-01  0.134E-01  0.454E-01  0.267E-01
   8.651  0.139E-01  0.217E-02  0.344E-02  0.133E-02  0.133E-02  0.344E-02  0.217E-02
   8.653  0.146E-01  0.260E-02  0.187E-02  0.285E-02  0.285E-02  0.187E-02  0.260E-02
   8.655  0.897E-01  0.180E-01  0.114E-01  0.154E-01  0.154E-01  0.114E-01  0.180E-01
   8.657  0.326E+00  0.691E-01  0.446E-01  0.495E-01  0.495E-01  0.446E-01  0.691E-01
   8.659  0.278E+00  0.595E-01  0.396E-01  0.402E-01  0.402E-01  0.396E-01  0.595E-01
   8.661  0.227E+00  0.420E-01  0.420E-01  0.294E-01  0.294E-01  0.420E-01  0.420E-01
   8.663  0.152E+00  0.278E-01  0.297E-01  0.186E-01  0.186E-01  0.297E-01  0.278E-01
   8.665  0.179E-01  0.329E-02  0.332E-02  0.233E-02  0.233E-02  0.332E-02  0.329E-02
   8.667  0.290E-01  0.565E-02  0.260E-02  0.624E-02  0.624E-02  0.260E-02  0.565E-02
   8.669  0.145E+00  0.320E-01  0.155E-01  0.251E-01  0.251E-01  0.155E-01  0.320E-01
   8.671  0.279E+00  0.617E-01  0.344E-01  0.435E-01  0.435E-01  0.344E-01  0.617E-01
   8.673  0.178E+00  0.392E-01  0.227E-01  0.268E-01  0.268E-01  0.227E-01  0.392E-01
   8.675  0.270E+00  0.664E-01  0.325E-01  0.360E-01  0.360E-01  0.325E-01  0.664E-01
   8.677  0.367E+00  0.904E-01  0.430E-01  0.498E-01  0.498E-01  0.430E-01  0.904E-01
   8.679  0.180E+00  0.423E-01  0.214E-01  0.262E-01  0.262E-01  0.214E-01  0.423E-01
   8.681  0.310E+00  0.523E-01  0.688E-01  0.340E-01  0.340E-01  0.688E-01  0.523E-01
   8.683  0.430E+00  0.686E-01  0.110E+00  0.365E-01  0.365E-01  0.110E+00  0.686E-01
   8.685  0.185E+00  0.352E-01  0.388E-01  0.185E-01  0.185E-01  0.388E-01  0.352E-01
   8.687  0.233E-01  0.474E-02  0.365E-02  0.326E-02  0.326E-02  0.365E-02  0.474E-02
   8.689  0.213E-01  0.307E-02  0.320E-02  0.437E-02  0.437E-02  0.320E-02  0.307E-02
   8.691  0.306E-01  0.496E-02  0.328E-02  0.705E-02  0.705E-02  0.328E-02  0.496E-02
   8.693  0.271E-01  0.504E-02  0.313E-02  0.539E-02  0.539E-02  0.313E-02  0.504E-02
   8.695  0.128E+00  0.266E-01  0.193E-01  0.183E-01  0.183E-01  0.193E-01  0.266E-01
   8.697  0.215E+00  0.468E-01  0.302E-01  0.307E-01  0.307E-01  0.302E-01  0.468E-01
   8.699  0.173E+00  0.418E-01  0.194E-01  0.255E-01  0.255E-01  0.194E-01  0.418E-01
   8.701  0.145E+00  0.295E-01  0.217E-01  0.213E-01  0.213E-01  0.217E-01  0.295E-01
   8.703  0.323E+00  0.609E-01  0.570E-01  0.434E-01  0.434E-01  0.570E-01  0.609E-01
   8.705  0.266E+00  0.526E-01  0.422E-01  0.385E-01  0.385E-01  0.422E-01  0.526E-01
   8.707  0.457E-01  0.920E-02  0.657E-02  0.710E-02  0.710E-02  0.657E-02  0.920E-02
   8.709  0.131E-01  0.203E-02  0.166E-02  0.285E-02  0.285E-02  0.166E-02  0.203E-02
   8.711  0.138E-01  0.220E-02  0.156E-02  0.314E-02  0.314E-02  0.156E-02  0.220E-02
   8.713  0.329E-01  0.826E-02  0.317E-02  0.500E-02  0.500E-02  0.317E-02  0.826E-02
   8.715  0.166E+00  0.411E-01  0.175E-01  0.245E-01  0.245E-01  0.175E-01  0.411E-01
   8.717  0.257E+00  0.569E-01  0.338E-01  0.378E-01  0.378E-01  0.338E-01  0.569E-01
   8.719  0.186E+00  0.318E-01  0.409E-01  0.201E-01  0.201E-01  0.409E-01  0.318E-01
   8.721  0.230E+00  0.291E-01  0.758E-01  0.998E-02  0.998E-02  0.758E-01  0.291E-01
   8.723  0.258E+00  0.577E-01  0.503E-01  0.211E-01  0.211E-01  0.503E-01  0.577E-01
   8.725  0.265E+00  0.626E-01  0.408E-01  0.290E-01  0.290E-01  0.408E-01  0.626E-01
   8.727  0.197E+00  0.385E-01  0.379E-01  0.222E-01  0.222E-01  0.379E-01  0.385E-01
   8.729  0.327E-01  0.606E-02  0.658E-02  0.371E-02  0.371E-02  0.658E-02  0.606E-02
   8.731  0.365E-01  0.953E-02  0.336E-02  0.536E-02  0.536E-02  0.336E-02  0.953E-02
   8.733  0.137E+00  0.360E-01  0.123E-01  0.202E-01  0.202E-01  0.123E-01  0.360E-01
   8.735  0.721E-01  0.189E-01  0.650E-02  0.106E-01  0.106E-01  0.650E-02  0.189E-01
   8.737  0.465E-01  0.101E-01  0.597E-02  0.716E-02  0.716E-02  0.597E-02  0.101E-01
   8.739  0.288E+00  0.613E-01  0.385E-01  0.444E-01  0.444E-01  0.385E-01  0.613E-01
   8.741  0.288E+00  0.613E-01  0.385E-01  0.442E-01  0.442E-01  0.385E-01  0.613E-01
   8.743  0.444E-01  0.965E-02  0.585E-02  0.673E-02  0.673E-02  0.585E-02  0.965E-02
   8.745  0.484E-01  0.129E-01  0.471E-02  0.660E-02  0.660E-02  0.471E-02  0.129E-01
   8.747  0.104E+00  0.273E-01  0.105E-01  0.140E-01  0.140E-01  0.105E-01  0.273E-01
   8.749  0.108E+00  0.218E-01  0.193E-01  0.128E-01  0.128E-01  0.193E-01  0.218E-01
   8.751  0.266E+00  0.529E-01  0.479E-01  0.320E-01  0.320E-01  0.479E-01  0.529E-01
   8.753  0.213E+00  0.507E-01  0.268E-01  0.292E-01  0.292E-01  0.268E-01  0.507E-01
   8.755  0.583E-01  0.162E-01  0.486E-02  0.809E-02  0.809E-02  0.486E-02  0.162E-01
   8.757  0.147E-01  0.460E-02  0.103E-02  0.174E-02  0.174E-02  0.103E-02  0.460E-02
   8.759  0.236E-01  0.207E-02  0.912E-02  0.614E-03  0.614E-03  0.912E-02  0.207E-02
   8.761  0.151E+00  0.130E-01  0.577E-01  0.491E-02  0.491E-02  0.577E-01  0.130E-01
   8.763  0.245E+00  0.369E-01  0.631E-01  0.224E-01  0.224E-01  0.631E-01  0.369E-01
   8.765  0.164E+00  0.343E-01  0.241E-01  0.237E-01  0.237E-01  0.241E-01  0.343E-01
   8.767  0.239E-01  0.525E-02  0.303E-02  0.369E-02  0.369E-02  0.303E-02  0.525E-02
   8.769  0.135E-02  0.339E-03  0.128E-03  0.206E-03  0.206E-03  0.128E-03  0.339E-03
   8.771  0.294E-01  0.795E-02  0.228E-02  0.448E-02  0.448E-02  0.228E-02  0.795E-02
   8.773  0.142E+00  0.381E-01  0.114E-01  0.216E-01  0.216E-01  0.114E-01  0.381E-01
   8.775  0.180E+00  0.413E-01  0.236E-01  0.252E-01  0.252E-01  0.236E-01  0.413E-01
   8.777  0.376E+00  0.730E-01  0.654E-01  0.495E-01  0.495E-01  0.654E-01  0.730E-01
   8.779  0.206E+00  0.403E-01  0.347E-01  0.277E-01  0.277E-01  0.347E-01  0.403E-01
   8.781  0.159E-01  0.316E-02  0.258E-02  0.219E-02  0.219E-02  0.258E-02  0.316E-02
   8.783  0.179E-03  0.364E-04  0.275E-04  0.255E-04  0.255E-04  0.275E-04  0.364E-04
   8.785  0.190E-02  0.433E-03  0.213E-03  0.304E-03  0.304E-03  0.213E-03  0.433E-03
   8.787  0.497E-01  0.113E-01  0.557E-02  0.795E-02  0.795E-02  0.557E-02  0.113E-01
   8.789  0.176E+00  0.401E-01  0.197E-01  0.281E-01  0.281E-01  0.197E-01  0.401E-01
   8.791  0.846E-01  0.193E-01  0.946E-02  0.135E-01  0.135E-01  0.946E-02  0.193E-01
   8.793  0.242E-01  0.639E-02  0.193E-02  0.379E-02  0.379E-02  0.193E-02  0.639E-02
   8.795  0.126E+00  0.345E-01  0.884E-02  0.195E-01  0.195E-01  0.884E-02  0.345E-01
   8.797  0.114E+00  0.313E-01  0.802E-02  0.177E-01  0.177E-01  0.802E-02  0.313E-01
   8.799  0.141E-01  0.385E-02  0.995E-03  0.218E-02  0.218E-02  0.995E-03  0.385E-02
   8.801  0.726E-02  0.129E-02  0.176E-02  0.588E-03  0.588E-03  0.176E-02  0.129E-02
   8.803  0.159E+00  0.271E-01  0.399E-01  0.125E-01  0.125E-01  0.399E-01  0.271E-01
   8.805  0.489E+00  0.821E-01  0.124E+00  0.385E-01  0.385E-01  0.124E+00  0.821E-01
   8.807  0.205E+00  0.338E-01  0.524E-01  0.162E-01  0.162E-01  0.524E-01  0.338E-01
   8.809  0.117E-01  0.190E-02  0.301E-02  0.929E-03  0.929E-03  0.301E-02  0.190E-02
   8.811  0.123E-02  0.284E-03  0.136E-03  0.195E-03  0.195E-03  0.136E-03  0.284E-03
   8.813  0.381E-01  0.899E-02  0.377E-02  0.627E-02  0.627E-02  0.377E-02  0.899E-02
   8.815  0.195E+00  0.458E-01  0.200E-01  0.319E-01  0.319E-01  0.200E-01  0.458E-01
   8.817  0.297E+00  0.687E-01  0.329E-01  0.471E-01  0.471E-01  0.329E-01  0.687E-01
   8.819  0.310E+00  0.775E-01  0.293E-01  0.481E-01  0.481E-01  0.293E-01  0.775E-01
   8.821  0.215E+00  0.573E-01  0.186E-01  0.316E-01  0.316E-01  0.186E-01  0.573E-01
   8.823  0.681E-01  0.179E-01  0.678E-02  0.931E-02  0.931E-02  0.678E-02  0.179E-01
   8.825  0.479E-02  0.125E-02  0.502E-03  0.640E-03  0.640E-03  0.502E-03  0.125E-02
   8.827  0.511E-04  0.133E-04  0.542E-05  0.680E-05  0.680E-05  0.542E-05  0.133E-04
   8.829  0.400E-04  0.659E-05  0.925E-05  0.416E-05  0.416E-05  0.925E-05  0.659E-05
   8.831  0.492E-02  0.810E-03  0.114E-02  0.512E-03  0.512E-03  0.114E-02  0.810E-03
   8.833  0.821E-01  0.135E-01  0.190E-01  0.854E-02  0.854E-02  0.190E-01  0.135E-01
   8.835  0.185E+00  0.305E-01  0.429E-01  0.193E-01  0.193E-01  0.429E-01  0.305E-01
   8.837  0.567E-01  0.933E-02  0.131E-01  0.590E-02  0.590E-02  0.131E-01  0.933E-02
   8.839  0.892E-02  0.201E-02  0.110E-02  0.136E-02  0.136E-02  0.110E-02  0.201E-02
   8.841  0.949E-01  0.235E-01  0.790E-02  0.160E-01  0.160E-01  0.790E-02  0.235E-01
   8.843  0.242E+00  0.623E-01  0.183E-01  0.404E-01  0.404E-01  0.183E-01  0.623E-01
   8.845  0.202E+00  0.558E-01  0.123E-01  0.330E-01  0.330E-01  0.123E-01  0.558E-01
   8.847  0.512E-01  0.139E-01  0.379E-02  0.794E-02  0.794E-02  0.379E-02  0.139E-01
   8.849  0.537E-01  0.315E-02  0.224E-01  0.131E-02  0.131E-02  0.224E-01  0.315E-02
   8.851  0.142E+00  0.715E-02  0.609E-01  0.275E-02  0.275E-02  0.609E-01  0.715E-02
   8.853  0.524E-01  0.265E-02  0.225E-01  0.102E-02  0.102E-02  0.225E-01  0.265E-02
   8.855  0.278E-02  0.167E-03  0.115E-02  0.746E-04  0.746E-04  0.115E-02  0.167E-03
   8.857  0.122E-01  0.275E-02  0.147E-02  0.187E-02  0.187E-02  0.147E-02  0.275E-02
   8.859  0.130E+00  0.293E-01  0.156E-01  0.200E-01  0.200E-01  0.156E-01  0.293E-01
   8.861  0.188E+00  0.424E-01  0.227E-01  0.289E-01  0.289E-01  0.227E-01  0.424E-01
   8.863  0.536E-01  0.110E-01  0.842E-02  0.736E-02  0.736E-02  0.842E-02  0.110E-01
   8.865  0.138E+00  0.224E-01  0.325E-01  0.141E-01  0.141E-01  0.325E-01  0.224E-01
   8.867  0.165E+00  0.281E-01  0.365E-01  0.178E-01  0.178E-01  0.365E-01  0.281E-01
   8.869  0.202E+00  0.519E-01  0.163E-01  0.328E-01  0.328E-01  0.163E-01  0.519E-01
   8.871  0.320E+00  0.873E-01  0.187E-01  0.540E-01  0.540E-01  0.187E-01  0.873E-01
   8.873  0.829E-01  0.230E-01  0.456E-02  0.139E-01  0.139E-01  0.456E-02  0.230E-01
   8.875  0.312E-02  0.877E-03  0.163E-03  0.521E-03  0.521E-03  0.163E-03  0.877E-03
   8.877  0.168E-04  0.477E-05  0.844E-06  0.280E-05  0.280E-05  0.844E-06  0.477E-05
   8.879  0.128E-07  0.364E-08  0.622E-09  0.212E-08  0.212E-08  0.622E-09  0.364E-08
   8.881  0.717E-10  0.196E-10  0.844E-11  0.778E-11  0.778E-11  0.844E-11  0.196E-10
   8.883  0.278E-06  0.760E-07  0.331E-07  0.299E-07  0.299E-07  0.331E-07  0.760E-07
   8.885  0.149E-03  0.407E-04  0.177E-04  0.160E-04  0.160E-04  0.177E-04  0.407E-04
   8.887  0.108E-01  0.294E-02  0.128E-02  0.116E-02  0.116E-02  0.128E-02  0.294E-02
   8.889  0.105E+00  0.288E-01  0.126E-01  0.113E-01  0.113E-01  0.126E-01  0.288E-01
   8.891  0.140E+00  0.382E-01  0.166E-01  0.150E-01  0.150E-01  0.166E-01  0.382E-01
   8.893  0.264E-01  0.722E-02  0.305E-02  0.291E-02  0.291E-02  0.305E-02  0.722E-02
   8.895  0.541E-01  0.148E-01  0.338E-02  0.884E-02  0.884E-02  0.338E-02  0.148E-01
   8.897  0.376E+00  0.916E-01  0.408E-01  0.557E-01  0.557E-01  0.408E-01  0.916E-01
   8.899  0.573E+00  0.108E+00  0.114E+00  0.655E-01  0.655E-01  0.114E+00  0.108E+00
   8.901  0.282E+00  0.490E-01  0.644E-01  0.274E-01  0.274E-01  0.644E-01  0.490E-01
   8.903  0.127E+00  0.289E-01  0.172E-01  0.172E-01  0.172E-01  0.172E-01  0.289E-01
   8.905  0.217E+00  0.502E-01  0.252E-01  0.330E-01  0.330E-01  0.252E-01  0.502E-01
   8.907  0.909E-01  0.210E-01  0.105E-01  0.139E-01  0.139E-01  0.105E-01  0.210E-01
   8.909  0.523E-02  0.121E-02  0.606E-03  0.798E-03  0.798E-03  0.606E-03  0.121E-02
   8.911  0.407E-04  0.941E-05  0.472E-05  0.621E-05  0.621E-05  0.472E-05  0.941E-05
   8.913  0.429E-07  0.992E-08  0.497E-08  0.655E-08  0.655E-08  0.497E-08  0.992E-08
   8.915  0.254E-09  0.752E-10  0.878E-11  0.432E-10  0.432E-10  0.878E-11  0.752E-10
   8.917  0.762E-06  0.226E-06  0.249E-07  0.130E-06  0.130E-06  0.249E-07  0.226E-06
   8.919  0.322E-03  0.954E-04  0.106E-04  0.548E-04  0.548E-04  0.106E-04  0.954E-04
   8.921  0.194E-01  0.571E-02  0.655E-03  0.331E-02  0.331E-02  0.655E-03  0.571E-02
   8.923  0.181E+00  0.529E-01  0.656E-02  0.312E-01  0.312E-01  0.656E-02  0.529E-01
   8.925  0.306E+00  0.875E-01  0.122E-01  0.531E-01  0.531E-01  0.122E-01  0.875E-01
   8.927  0.981E-01  0.276E-01  0.425E-02  0.172E-01  0.172E-01  0.425E-02  0.276E-01
   8.929  0.601E-02  0.159E-02  0.408E-03  0.101E-02  0.101E-02  0.408E-03  0.159E-02
   8.931  0.281E-01  0.440E-02  0.695E-02  0.272E-02  0.272E-02  0.695E-02  0.440E-02
   8.933  0.157E+00  0.246E-01  0.389E-01  0.152E-01  0.152E-01  0.389E-01  0.246E-01
   8.935  0.119E+00  0.186E-01  0.295E-01  0.115E-01  0.115E-01  0.295E-01  0.186E-01
   8.937  0.122E-01  0.191E-02  0.302E-02  0.118E-02  0.118E-02  0.302E-02  0.191E-02
   8.939  0.170E-03  0.265E-04  0.419E-04  0.164E-04  0.164E-04  0.419E-04  0.265E-04
   8.941  0.322E-06  0.507E-07  0.788E-07  0.313E-07  0.313E-07  0.788E-07  0.507E-07
   8.943  0.540E-05  0.161E-05  0.166E-06  0.922E-06  0.922E-06  0.166E-06  0.161E-05
   8.945  0.131E-02  0.382E-03  0.515E-04  0.219E-03  0.219E-03  0.515E-04  0.382E-03
   8.947  0.476E-01  0.131E-01  0.308E-02  0.759E-02  0.759E-02  0.308E-02  0.131E-01
   8.949  0.324E+00  0.786E-01  0.368E-01  0.466E-01  0.466E-01  0.368E-01  0.786E-01
   8.951  0.565E+00  0.124E+00  0.821E-01  0.766E-01  0.766E-01  0.821E-01  0.124E+00
   8.953  0.265E+00  0.594E-01  0.356E-01  0.376E-01  0.376E-01  0.356E-01  0.594E-01
   8.955  0.258E-01  0.600E-02  0.309E-02  0.383E-02  0.383E-02  0.309E-02  0.600E-02
   8.957  0.412E-03  0.971E-04  0.467E-04  0.621E-04  0.621E-04  0.467E-04  0.971E-04
   8.959  0.950E-06  0.225E-06  0.106E-06  0.144E-06  0.144E-06  0.106E-06  0.225E-06
   8.961  0.489E-09  0.100E-09  0.805E-10  0.634E-10  0.634E-10  0.805E-10  0.100E-09
   8.963  0.606E-06  0.934E-07  0.153E-06  0.567E-07  0.567E-07  0.153E-06  0.934E-07
   8.965  0.269E-03  0.414E-04  0.678E-04  0.251E-04  0.251E-04  0.678E-04  0.414E-04
   8.967  0.162E-01  0.250E-02  0.407E-02  0.152E-02  0.152E-02  0.407E-02  0.250E-02
   8.969  0.137E+00  0.221E-01  0.332E-01  0.133E-01  0.133E-01  0.332E-01  0.221E-01
   8.971  0.251E+00  0.545E-01  0.389E-01  0.320E-01  0.320E-01  0.389E-01  0.545E-01
   8.973  0.334E+00  0.972E-01  0.134E-01  0.567E-01  0.567E-01  0.134E-01  0.972E-01
   8.975  0.188E+00  0.556E-01  0.603E-02  0.324E-01  0.324E-01  0.603E-02  0.556E-01
   8.977  0.123E+00  0.341E-01  0.126E-01  0.148E-01  0.148E-01  0.126E-01  0.341E-01
   8.979  0.156E+00  0.427E-01  0.180E-01  0.173E-01  0.173E-01  0.180E-01  0.427E-01
   8.981  0.316E-01  0.865E-02  0.366E-02  0.350E-02  0.350E-02  0.366E-02  0.865E-02
   8.983  0.155E-01  0.388E-02  0.193E-02  0.195E-02  0.195E-02  0.193E-02  0.388E-02
   8.985  0.904E-01  0.225E-01  0.113E-01  0.115E-01  0.115E-01  0.113E-01  0.225E-01
   8.987  0.755E-01  0.188E-01  0.941E-02  0.957E-02  0.957E-02  0.941E-02  0.188E-01
   8.989  0.181E-01  0.504E-02  0.126E-02  0.274E-02  0.274E-02  0.126E-02  0.504E-02
   8.991  0.143E+00  0.436E-01  0.300E-02  0.250E-01  0.250E-01  0.300E-02  0.436E-01
   8.993  0.338E+00  0.103E+00  0.726E-02  0.591E-01  0.591E-01  0.726E-02  0.103E+00
   8.995  0.130E+00  0.394E-01  0.288E-02  0.228E-01  0.228E-01  0.288E-02  0.394E-01
   8.997  0.168E-01  0.455E-02  0.112E-02  0.273E-02  0.273E-02  0.112E-02  0.455E-02
   8.999  0.122E+00  0.296E-01  0.129E-01  0.184E-01  0.184E-01  0.129E-01  0.296E-01
   9.001  0.230E+00  0.548E-01  0.261E-01  0.341E-01  0.341E-01  0.261E-01  0.548E-01
   9.003  0.121E+00  0.155E-01  0.346E-01  0.102E-01  0.102E-01  0.346E-01  0.155E-01
   9.005  0.167E+00  0.182E-01  0.536E-01  0.116E-01  0.116E-01  0.536E-01  0.182E-01
   9.007  0.431E+00  0.106E+00  0.483E-01  0.611E-01  0.611E-01  0.483E-01  0.106E+00
   9.009  0.417E+00  0.105E+00  0.431E-01  0.604E-01  0.604E-01  0.431E-01  0.105E+00
   9.011  0.602E-01  0.148E-01  0.676E-02  0.853E-02  0.853E-02  0.676E-02  0.148E-01
   9.013  0.421E-02  0.122E-02  0.196E-03  0.691E-03  0.691E-03  0.196E-03  0.122E-02
   9.015  0.875E-01  0.270E-01  0.150E-02  0.152E-01  0.152E-01  0.150E-02  0.270E-01
   9.017  0.361E+00  0.111E+00  0.617E-02  0.629E-01  0.629E-01  0.617E-02  0.111E+00
   9.019  0.400E+00  0.123E+00  0.674E-02  0.696E-01  0.696E-01  0.674E-02  0.123E+00
   9.021  0.509E+00  0.157E+00  0.849E-02  0.886E-01  0.886E-01  0.849E-02  0.157E+00
   9.023  0.245E+00  0.758E-01  0.412E-02  0.427E-01  0.427E-01  0.412E-02  0.758E-01
   9.025  0.178E+00  0.550E-01  0.307E-02  0.310E-01  0.310E-01  0.307E-02  0.550E-01
   9.027  0.117E+00  0.361E-01  0.202E-02  0.204E-01  0.204E-01  0.202E-02  0.361E-01
   9.029  0.295E-01  0.908E-02  0.524E-03  0.514E-02  0.514E-02  0.524E-03  0.908E-02
   9.031  0.138E+00  0.423E-01  0.249E-02  0.240E-01  0.240E-01  0.249E-02  0.423E-01
   9.033  0.142E+00  0.436E-01  0.256E-02  0.247E-01  0.247E-01  0.256E-02  0.436E-01
   9.035  0.198E-01  0.610E-02  0.359E-03  0.346E-02  0.346E-02  0.359E-03  0.610E-02
   9.037  0.432E-02  0.132E-02  0.827E-04  0.753E-03  0.753E-03  0.827E-04  0.132E-02
   9.039  0.721E-01  0.221E-01  0.139E-02  0.126E-01  0.126E-01  0.139E-02  0.221E-01
   9.041  0.178E+00  0.547E-01  0.343E-02  0.311E-01  0.311E-01  0.343E-02  0.547E-01
   9.043  0.601E-01  0.184E-01  0.125E-02  0.104E-01  0.104E-01  0.125E-02  0.184E-01
   9.045  0.222E-01  0.378E-02  0.517E-02  0.216E-02  0.216E-02  0.517E-02  0.378E-02
   9.047  0.143E+00  0.222E-01  0.365E-01  0.127E-01  0.127E-01  0.365E-01  0.222E-01
   9.049  0.247E+00  0.496E-01  0.449E-01  0.292E-01  0.292E-01  0.449E-01  0.496E-01
   9.051  0.377E+00  0.989E-01  0.312E-01  0.584E-01  0.584E-01  0.312E-01  0.989E-01
   9.053  0.233E+00  0.667E-01  0.109E-01  0.387E-01  0.387E-01  0.109E-01  0.667E-01
   9.055  0.315E-01  0.944E-02  0.913E-03  0.542E-02  0.542E-02  0.913E-03  0.944E-02
   9.057  0.257E-02  0.268E-03  0.838E-03  0.180E-03  0.180E-03  0.838E-03  0.268E-03
   9.059  0.388E-01  0.109E-02  0.171E-01  0.118E-02  0.118E-02  0.171E-01  0.109E-02
   9.061  0.110E+00  0.315E-02  0.483E-01  0.336E-02  0.336E-02  0.483E-01  0.315E-02
   9.063  0.564E-01  0.562E-02  0.188E-01  0.382E-02  0.382E-02  0.188E-01  0.562E-02
   9.065  0.141E+00  0.418E-01  0.522E-02  0.236E-01  0.236E-01  0.522E-02  0.418E-01
   9.067  0.274E+00  0.795E-01  0.171E-01  0.402E-01  0.402E-01  0.171E-01  0.795E-01
   9.069  0.190E+00  0.529E-01  0.188E-01  0.230E-01  0.230E-01  0.188E-01  0.529E-01
   9.071  0.340E-01  0.929E-02  0.379E-02  0.394E-02  0.394E-02  0.379E-02  0.929E-02
   9.073  0.554E-01  0.135E-01  0.729E-02  0.688E-02  0.688E-02  0.729E-02  0.135E-01
   9.075  0.110E+00  0.268E-01  0.145E-01  0.137E-01  0.137E-01  0.145E-01  0.268E-01
   9.077  0.300E-01  0.732E-02  0.394E-02  0.373E-02  0.373E-02  0.394E-02  0.732E-02
   9.079  0.920E-02  0.270E-02  0.348E-03  0.155E-02  0.155E-02  0.348E-03  0.270E-02
   9.081  0.998E-01  0.300E-01  0.250E-02  0.174E-01  0.174E-01  0.250E-02  0.300E-01
   9.083  0.166E+00  0.500E-01  0.417E-02  0.290E-01  0.290E-01  0.417E-02  0.500E-01
   9.085  0.389E-01  0.115E-01  0.130E-02  0.667E-02  0.667E-02  0.130E-02  0.115E-01
   9.087  0.413E-01  0.638E-02  0.108E-01  0.348E-02  0.348E-02  0.108E-01  0.638E-02
   9.089  0.161E+00  0.243E-01  0.432E-01  0.132E-01  0.132E-01  0.432E-01  0.243E-01
   9.091  0.879E-01  0.132E-01  0.235E-01  0.718E-02  0.718E-02  0.235E-01  0.132E-01
   9.093  0.648E-02  0.974E-03  0.174E-02  0.529E-03  0.529E-03  0.174E-02  0.974E-03
   9.095  0.736E-04  0.124E-04  0.176E-04  0.685E-05  0.685E-05  0.176E-04  0.124E-04
   9.097  0.198E-02  0.577E-03  0.723E-04  0.338E-03  0.338E-03  0.723E-04  0.577E-03
   9.099  0.649E-01  0.186E-01  0.303E-02  0.109E-01  0.109E-01  0.303E-02  0.186E-01
   9.101  0.346E+00  0.956E-01  0.213E-01  0.560E-01  0.560E-01  0.213E-01  0.956E-01
   9.103  0.310E+00  0.828E-01  0.237E-01  0.485E-01  0.485E-01  0.237E-01  0.828E-01
   9.105  0.450E-01  0.117E-01  0.389E-02  0.687E-02  0.687E-02  0.389E-02  0.117E-01
   9.107  0.981E-03  0.253E-03  0.896E-04  0.148E-03  0.148E-03  0.896E-04  0.253E-03
   9.109  0.304E-05  0.779E-06  0.284E-06  0.456E-06  0.456E-06  0.284E-06  0.779E-06
   9.111  0.146E-08  0.340E-09  0.187E-09  0.201E-09  0.201E-09  0.187E-09  0.340E-09
   9.113  0.478E-06  0.231E-07  0.197E-06  0.187E-07  0.187E-07  0.197E-06  0.231E-07
   9.115  0.198E-03  0.960E-05  0.814E-04  0.774E-05  0.774E-05  0.814E-04  0.960E-05
   9.117  0.111E-01  0.561E-03  0.456E-02  0.447E-03  0.447E-03  0.456E-02  0.561E-03
   9.119  0.916E-01  0.642E-02  0.347E-01  0.467E-02  0.467E-02  0.347E-01  0.642E-02
   9.121  0.185E+00  0.333E-01  0.384E-01  0.206E-01  0.206E-01  0.384E-01  0.333E-01
   9.123  0.177E+00  0.490E-01  0.100E-01  0.292E-01  0.292E-01  0.100E-01  0.490E-01
   9.125  0.373E-01  0.109E-01  0.124E-02  0.648E-02  0.648E-02  0.124E-02  0.109E-01
   9.127  0.123E-02  0.347E-03  0.612E-04  0.205E-03  0.205E-03  0.612E-04  0.347E-03
   9.129  0.821E-02  0.124E-02  0.224E-02  0.629E-03  0.629E-03  0.224E-02  0.124E-02
   9.131  0.964E-01  0.145E-01  0.263E-01  0.738E-02  0.738E-02  0.263E-01  0.145E-01
   9.133  0.153E+00  0.230E-01  0.418E-01  0.117E-01  0.117E-01  0.418E-01  0.230E-01
   9.135  0.329E-01  0.495E-02  0.898E-02  0.252E-02  0.252E-02  0.898E-02  0.495E-02
   9.137  0.957E-03  0.144E-03  0.261E-03  0.733E-04  0.733E-04  0.261E-03  0.144E-03
   9.139  0.436E-05  0.739E-06  0.105E-05  0.391E-06  0.391E-06  0.105E-05  0.739E-06
   9.141  0.262E-03  0.762E-04  0.914E-05  0.457E-04  0.457E-04  0.914E-05  0.762E-04
   9.143  0.158E-01  0.459E-02  0.550E-03  0.275E-02  0.275E-02  0.550E-03  0.459E-02
   9.145  0.129E+00  0.374E-01  0.448E-02  0.224E-01  0.224E-01  0.448E-02  0.374E-01
   9.147  0.142E+00  0.412E-01  0.495E-02  0.247E-01  0.247E-01  0.495E-02  0.412E-01
   9.149  0.213E-01  0.620E-02  0.754E-03  0.372E-02  0.372E-02  0.754E-03  0.620E-02
   9.151  0.150E-01  0.393E-02  0.131E-02  0.224E-02  0.224E-02  0.131E-02  0.393E-02
   9.153  0.165E+00  0.432E-01  0.147E-01  0.245E-01  0.245E-01  0.147E-01  0.432E-01
   9.155  0.276E+00  0.728E-01  0.249E-01  0.404E-01  0.404E-01  0.249E-01  0.728E-01
   9.157  0.224E+00  0.619E-01  0.224E-01  0.277E-01  0.277E-01  0.224E-01  0.619E-01
   9.159  0.164E+00  0.459E-01  0.169E-01  0.191E-01  0.191E-01  0.169E-01  0.459E-01
   9.161  0.208E-01  0.584E-02  0.215E-02  0.242E-02  0.242E-02  0.215E-02  0.584E-02
   9.163  0.396E-02  0.971E-03  0.522E-03  0.485E-03  0.485E-03  0.522E-03  0.971E-03
   9.165  0.567E-01  0.137E-01  0.764E-02  0.698E-02  0.698E-02  0.764E-02  0.137E-01
   9.167  0.121E+00  0.293E-01  0.163E-01  0.149E-01  0.149E-01  0.163E-01  0.293E-01
   9.169  0.522E-01  0.134E-01  0.538E-02  0.731E-02  0.731E-02  0.538E-02  0.134E-01
   9.171  0.134E+00  0.383E-01  0.538E-02  0.232E-01  0.232E-01  0.538E-02  0.383E-01
   9.173  0.139E+00  0.396E-01  0.607E-02  0.240E-01  0.240E-01  0.607E-02  0.396E-01
   9.175  0.740E-01  0.138E-01  0.160E-01  0.721E-02  0.721E-02  0.160E-01  0.138E-01
   9.177  0.163E+00  0.247E-01  0.455E-01  0.115E-01  0.115E-01  0.455E-01  0.247E-01
   9.179  0.105E+00  0.135E-01  0.326E-01  0.664E-02  0.664E-02  0.326E-01  0.135E-01
   9.181  0.119E+00  0.110E-01  0.423E-01  0.618E-02  0.618E-02  0.423E-01  0.110E-01
   9.183  0.436E-01  0.396E-02  0.156E-01  0.224E-02  0.224E-02  0.156E-01  0.396E-02
   9.185  0.222E-02  0.202E-03  0.795E-03  0.114E-03  0.114E-03  0.795E-03  0.202E-03
   9.187  0.153E-04  0.139E-05  0.549E-05  0.788E-06  0.788E-06  0.549E-05  0.139E-05
   9.189  0.143E-07  0.130E-08  0.513E-08  0.737E-09  0.737E-09  0.513E-08  0.130E-08
   9.191  0.799E-10  0.222E-10  0.410E-11  0.137E-10  0.137E-10  0.410E-11  0.222E-10
   9.193  0.307E-06  0.865E-07  0.136E-07  0.534E-07  0.534E-07  0.136E-07  0.865E-07
   9.195  0.163E-03  0.460E-04  0.721E-05  0.284E-04  0.284E-04  0.721E-05  0.460E-04
   9.197  0.117E-01  0.331E-02  0.519E-03  0.204E-02  0.204E-02  0.519E-03  0.331E-02
   9.199  0.114E+00  0.322E-01  0.505E-02  0.199E-01  0.199E-01  0.505E-02  0.322E-01
   9.201  0.151E+00  0.425E-01  0.667E-02  0.263E-01  0.263E-01  0.667E-02  0.425E-01
   9.203  0.364E-01  0.101E-01  0.197E-02  0.609E-02  0.609E-02  0.197E-02  0.101E-01
   9.205  0.142E+00  0.380E-01  0.117E-01  0.211E-01  0.211E-01  0.117E-01  0.380E-01
   9.207  0.285E+00  0.765E-01  0.237E-01  0.424E-01  0.424E-01  0.237E-01  0.765E-01
   9.209  0.780E-01  0.209E-01  0.648E-02  0.116E-01  0.116E-01  0.648E-02  0.209E-01
   9.211  0.289E-02  0.775E-03  0.240E-03  0.429E-03  0.429E-03  0.240E-03  0.775E-03
   9.213  0.145E-04  0.388E-05  0.120E-05  0.215E-05  0.215E-05  0.120E-05  0.388E-05
   9.215  0.214E-07  0.442E-08  0.410E-08  0.219E-08  0.219E-08  0.410E-08  0.442E-08
   9.217  0.142E-04  0.218E-05  0.400E-05  0.898E-06  0.898E-06  0.400E-05  0.218E-05
   9.219  0.233E-02  0.359E-03  0.659E-03  0.148E-03  0.148E-03  0.659E-03  0.359E-03
   9.221  0.521E-01  0.802E-02  0.147E-01  0.330E-02  0.330E-02  0.147E-01  0.802E-02
   9.223  0.157E+00  0.242E-01  0.444E-01  0.998E-02  0.998E-02  0.444E-01  0.242E-01
   9.225  0.643E-01  0.991E-02  0.182E-01  0.408E-02  0.408E-02  0.182E-01  0.991E-02
   9.227  0.832E-02  0.186E-02  0.124E-02  0.105E-02  0.105E-02  0.124E-02  0.186E-02
   9.229  0.772E-01  0.213E-01  0.385E-02  0.134E-01  0.134E-01  0.385E-02  0.213E-01
   9.231  0.169E+00  0.467E-01  0.841E-02  0.294E-01  0.294E-01  0.841E-02  0.467E-01
   9.233  0.502E-01  0.139E-01  0.250E-02  0.871E-02  0.871E-02  0.250E-02  0.139E-01
   9.235  0.201E-02  0.557E-03  0.100E-03  0.350E-03  0.350E-03  0.100E-03  0.557E-03
   9.237  0.344E-04  0.682E-05  0.684E-05  0.353E-05  0.353E-05  0.684E-05  0.682E-05
   9.239  0.357E-02  0.629E-03  0.891E-03  0.267E-03  0.267E-03  0.891E-03  0.629E-03
   9.241  0.851E-01  0.171E-01  0.182E-01  0.720E-02  0.720E-02  0.182E-01  0.171E-01
   9.243  0.341E+00  0.800E-01  0.574E-01  0.332E-01  0.332E-01  0.574E-01  0.800E-01
   9.245  0.232E+00  0.607E-01  0.303E-01  0.250E-01  0.250E-01  0.303E-01  0.607E-01
   9.247  0.249E-01  0.690E-02  0.273E-02  0.283E-02  0.283E-02  0.273E-02  0.690E-02
   9.249  0.391E-03  0.111E-03  0.391E-04  0.454E-04  0.454E-04  0.391E-04  0.111E-03
   9.251  0.151E-05  0.426E-06  0.133E-06  0.198E-06  0.198E-06  0.133E-06  0.426E-06
   9.253  0.336E-03  0.922E-04  0.260E-04  0.497E-04  0.497E-04  0.260E-04  0.922E-04
   9.255  0.237E-01  0.648E-02  0.186E-02  0.349E-02  0.349E-02  0.186E-02  0.648E-02
   9.257  0.240E+00  0.652E-01  0.199E-01  0.350E-01  0.350E-01  0.199E-01  0.652E-01
   9.259  0.401E+00  0.106E+00  0.379E-01  0.563E-01  0.563E-01  0.379E-01  0.106E+00
   9.261  0.168E+00  0.433E-01  0.169E-01  0.237E-01  0.237E-01  0.169E-01  0.433E-01
   9.263  0.168E+00  0.453E-01  0.100E-01  0.287E-01  0.287E-01  0.100E-01  0.453E-01
   9.265  0.983E-01  0.266E-01  0.555E-02  0.170E-01  0.170E-01  0.555E-02  0.266E-01
   9.267  0.177E-01  0.371E-02  0.318E-02  0.194E-02  0.194E-02  0.318E-02  0.371E-02
   9.269  0.985E-01  0.156E-01  0.282E-01  0.543E-02  0.543E-02  0.282E-01  0.156E-01
   9.271  0.138E+00  0.218E-01  0.396E-01  0.761E-02  0.761E-02  0.396E-01  0.218E-01
   9.273  0.263E-01  0.415E-02  0.753E-02  0.145E-02  0.145E-02  0.753E-02  0.415E-02
   9.275  0.675E-03  0.107E-03  0.194E-03  0.372E-04  0.372E-04  0.194E-03  0.107E-03
   9.277  0.235E-05  0.371E-06  0.674E-06  0.129E-06  0.129E-06  0.674E-06  0.371E-06
   9.279  0.111E-08  0.175E-09  0.317E-09  0.609E-10  0.609E-10  0.317E-09  0.175E-09
   9.281  0.705E-13  0.112E-13  0.202E-13  0.388E-14  0.388E-14  0.202E-13  0.112E-13
   9.283  0.608E-18  0.962E-19  0.175E-18  0.335E-19  0.335E-19  0.175E-18  0.962E-19
   9.285  0.000E+00  0.000E+00  0.000E+00  0.000E+00  0.000E+00  0.000E+00  0.000E+00
   9.287  0.118E-14  0.311E-15  0.742E-16  0.203E-15  0.203E-15  0.742E-16  0.311E-15
   9.289  0.394E-10  0.104E-10  0.248E-11  0.681E-11  0.681E-11  0.248E-11  0.104E-10
   9.291  0.179E-06  0.473E-07  0.113E-07  0.309E-07  0.309E-07  0.113E-07  0.473E-07
   9.293  0.110E-03  0.290E-04  0.691E-05  0.189E-04  0.189E-04  0.691E-05  0.290E-04
   9.295  0.912E-02  0.241E-02  0.574E-03  0.157E-02  0.157E-02  0.574E-03  0.241E-02
   9.297  0.102E+00  0.271E-01  0.646E-02  0.177E-01  0.177E-01  0.646E-02  0.271E-01
   9.299  0.157E+00  0.415E-01  0.101E-01  0.270E-01  0.270E-01  0.101E-01  0.415E-01
   9.301  0.740E-01  0.176E-01  0.106E-01  0.884E-02  0.884E-02  0.106E-01  0.176E-01
   9.303  0.168E+00  0.367E-01  0.340E-01  0.134E-01  0.134E-01  0.340E-01  0.367E-01
   9.305  0.135E+00  0.323E-01  0.214E-01  0.138E-01  0.138E-01  0.214E-01  0.323E-01
   9.307  0.292E+00  0.815E-01  0.217E-01  0.427E-01  0.427E-01  0.217E-01  0.815E-01
   9.309  0.239E+00  0.671E-01  0.171E-01  0.354E-01  0.354E-01  0.171E-01  0.671E-01
   9.311  0.271E-01  0.760E-02  0.193E-02  0.401E-02  0.401E-02  0.193E-02  0.760E-02
   9.313  0.513E-03  0.133E-03  0.578E-04  0.659E-04  0.659E-04  0.578E-04  0.133E-03
   9.315  0.815E-02  0.135E-02  0.235E-02  0.375E-03  0.375E-03  0.235E-02  0.135E-02
   9.317  0.991E-01  0.174E-01  0.271E-01  0.509E-02  0.509E-02  0.271E-01  0.174E-01
   9.319  0.273E+00  0.630E-01  0.514E-01  0.222E-01  0.222E-01  0.514E-01  0.630E-01
   9.321  0.330E+00  0.946E-01  0.335E-01  0.369E-01  0.369E-01  0.335E-01  0.946E-01
   9.323  0.920E-01  0.273E-01  0.786E-02  0.108E-01  0.108E-01  0.786E-02  0.273E-01
   9.325  0.374E-02  0.111E-02  0.313E-03  0.441E-03  0.441E-03  0.313E-03  0.111E-02
   9.327  0.207E-04  0.617E-05  0.173E-05  0.244E-05  0.244E-05  0.173E-05  0.617E-05
   9.329  0.517E-05  0.133E-05  0.365E-06  0.887E-06  0.887E-06  0.365E-06  0.133E-05
   9.331  0.120E-02  0.309E-03  0.847E-04  0.206E-03  0.206E-03  0.847E-04  0.309E-03
   9.333  0.377E-01  0.972E-02  0.266E-02  0.648E-02  0.648E-02  0.266E-02  0.972E-02
   9.335  0.161E+00  0.414E-01  0.114E-01  0.276E-01  0.276E-01  0.114E-01  0.414E-01
   9.337  0.927E-01  0.239E-01  0.655E-02  0.159E-01  0.159E-01  0.655E-02  0.239E-01
   9.339  0.723E-02  0.186E-02  0.511E-03  0.124E-02  0.124E-02  0.511E-03  0.186E-02
   9.341  0.777E-04  0.200E-04  0.555E-05  0.133E-04  0.133E-04  0.555E-05  0.200E-04
   9.343  0.462E-03  0.117E-03  0.549E-04  0.589E-04  0.589E-04  0.549E-04  0.117E-03
   9.345  0.224E-01  0.568E-02  0.266E-02  0.286E-02  0.286E-02  0.266E-02  0.568E-02
   9.347  0.147E+00  0.373E-01  0.175E-01  0.188E-01  0.188E-01  0.175E-01  0.373E-01
   9.349  0.132E+00  0.335E-01  0.156E-01  0.169E-01  0.169E-01  0.156E-01  0.335E-01
   9.351  0.637E-01  0.177E-01  0.504E-02  0.910E-02  0.910E-02  0.504E-02  0.177E-01
   9.353  0.306E+00  0.875E-01  0.202E-01  0.452E-01  0.452E-01  0.202E-01  0.875E-01
   9.355  0.276E+00  0.789E-01  0.192E-01  0.401E-01  0.401E-01  0.192E-01  0.789E-01
   9.357  0.172E+00  0.470E-01  0.218E-01  0.170E-01  0.170E-01  0.218E-01  0.470E-01
   9.359  0.213E+00  0.579E-01  0.299E-01  0.188E-01  0.188E-01  0.299E-01  0.579E-01
   9.361  0.435E-01  0.118E-01  0.612E-02  0.383E-02  0.383E-02  0.612E-02  0.118E-01
   9.363  0.613E-02  0.118E-02  0.160E-02  0.280E-03  0.280E-03  0.160E-02  0.118E-02
   9.365  0.724E-01  0.126E-01  0.211E-01  0.256E-02  0.256E-02  0.211E-01  0.126E-01
   9.367  0.144E+00  0.251E-01  0.419E-01  0.508E-02  0.508E-02  0.419E-01  0.251E-01
   9.369  0.389E-01  0.677E-02  0.113E-01  0.138E-02  0.138E-02  0.113E-01  0.677E-02
   9.371  0.861E-02  0.205E-02  0.979E-03  0.128E-02  0.128E-02  0.979E-03  0.205E-02
   9.373  0.924E-01  0.231E-01  0.729E-02  0.158E-01  0.158E-01  0.729E-02  0.231E-01
   9.375  0.161E+00  0.402E-01  0.127E-01  0.275E-01  0.275E-01  0.127E-01  0.402E-01
   9.377  0.381E-01  0.956E-02  0.301E-02  0.650E-02  0.650E-02  0.301E-02  0.956E-02
   9.379  0.249E-01  0.762E-02  0.184E-02  0.298E-02  0.298E-02  0.184E-02  0.762E-02
   9.381  0.237E+00  0.733E-01  0.175E-01  0.278E-01  0.278E-01  0.175E-01  0.733E-01
   9.383  0.321E+00  0.993E-01  0.237E-01  0.377E-01  0.377E-01  0.237E-01  0.993E-01
   9.385  0.589E-01  0.182E-01  0.434E-02  0.691E-02  0.691E-02  0.434E-02  0.182E-01
   9.387  0.146E-02  0.452E-03  0.108E-03  0.172E-03  0.172E-03  0.108E-03  0.452E-03
   9.389  0.505E-03  0.147E-03  0.311E-04  0.745E-04  0.745E-04  0.311E-04  0.147E-03
   9.391  0.323E-01  0.939E-02  0.198E-02  0.477E-02  0.477E-02  0.198E-02  0.939E-02
   9.393  0.282E+00  0.821E-01  0.173E-01  0.417E-01  0.417E-01  0.173E-01  0.821E-01
   9.395  0.334E+00  0.971E-01  0.205E-01  0.493E-01  0.493E-01  0.205E-01  0.971E-01
   9.397  0.535E-01  0.156E-01  0.329E-02  0.790E-02  0.790E-02  0.329E-02  0.156E-01
   9.399  0.882E-02  0.269E-02  0.831E-03  0.890E-03  0.890E-03  0.831E-03  0.269E-02
   9.401  0.132E+00  0.405E-01  0.131E-01  0.124E-01  0.124E-01  0.131E-01  0.405E-01
   9.403  0.308E+00  0.944E-01  0.305E-01  0.289E-01  0.289E-01  0.305E-01  0.944E-01
   9.405  0.970E-01  0.298E-01  0.962E-02  0.910E-02  0.910E-02  0.962E-02  0.298E-01
   9.407  0.414E-02  0.127E-02  0.411E-03  0.389E-03  0.389E-03  0.411E-03  0.127E-02
   9.409  0.521E-03  0.101E-03  0.143E-03  0.171E-04  0.171E-04  0.143E-03  0.101E-03
   9.411  0.223E-01  0.423E-02  0.618E-02  0.749E-03  0.749E-03  0.618E-02  0.423E-02
   9.413  0.156E+00  0.308E-01  0.386E-01  0.851E-02  0.851E-02  0.386E-01  0.308E-01
   9.415  0.253E+00  0.558E-01  0.421E-01  0.286E-01  0.286E-01  0.421E-01  0.558E-01
   9.417  0.147E+00  0.356E-01  0.153E-01  0.224E-01  0.224E-01  0.153E-01  0.356E-01
   9.419  0.206E+00  0.551E-01  0.201E-01  0.280E-01  0.280E-01  0.201E-01  0.551E-01
   9.421  0.227E+00  0.624E-01  0.211E-01  0.298E-01  0.298E-01  0.211E-01  0.624E-01
   9.423  0.354E+00  0.110E+00  0.239E-01  0.427E-01  0.427E-01  0.239E-01  0.110E+00
   9.425  0.662E+00  0.203E+00  0.412E-01  0.868E-01  0.868E-01  0.412E-01  0.203E+00
   9.427  0.409E+00  0.122E+00  0.242E-01  0.586E-01  0.586E-01  0.242E-01  0.122E+00
   9.429  0.622E-01  0.186E-01  0.375E-02  0.879E-02  0.879E-02  0.375E-02  0.186E-01
   9.431  0.144E+00  0.471E-01  0.110E-01  0.140E-01  0.140E-01  0.110E-01  0.471E-01
   9.433  0.385E+00  0.126E+00  0.294E-01  0.373E-01  0.373E-01  0.294E-01  0.126E+00
   9.435  0.140E+00  0.458E-01  0.107E-01  0.136E-01  0.136E-01  0.107E-01  0.458E-01
   9.437  0.691E-02  0.226E-02  0.528E-03  0.669E-03  0.669E-03  0.528E-03  0.226E-02
   9.439  0.462E-04  0.151E-04  0.353E-05  0.448E-05  0.448E-05  0.353E-05  0.151E-04
   9.441  0.130E-03  0.397E-04  0.750E-05  0.176E-04  0.176E-04  0.750E-05  0.397E-04
   9.443  0.181E-01  0.556E-02  0.105E-02  0.243E-02  0.243E-02  0.105E-02  0.556E-02
   9.445  0.349E+00  0.108E+00  0.204E-01  0.463E-01  0.463E-01  0.204E-01  0.108E+00
   9.447  0.103E+01  0.321E+00  0.611E-01  0.131E+00  0.131E+00  0.611E-01  0.321E+00
   9.449  0.752E+00  0.245E+00  0.472E-01  0.841E-01  0.841E-01  0.472E-01  0.245E+00
   9.451  0.371E+00  0.118E+00  0.225E-01  0.452E-01  0.452E-01  0.225E-01  0.118E+00
   9.453  0.140E+01  0.415E+00  0.785E-01  0.208E+00  0.208E+00  0.785E-01  0.415E+00
   9.455  0.198E+01  0.564E+00  0.124E+00  0.300E+00  0.300E+00  0.124E+00  0.564E+00
   9.457  0.157E+01  0.421E+00  0.118E+00  0.248E+00  0.248E+00  0.118E+00  0.421E+00
   9.459  0.137E+01  0.375E+00  0.956E-01  0.216E+00  0.216E+00  0.956E-01  0.375E+00
   9.461  0.593E+00  0.158E+00  0.366E-01  0.101E+00  0.101E+00  0.366E-01  0.158E+00
   9.463  0.548E+00  0.144E+00  0.280E-01  0.102E+00  0.102E+00  0.280E-01  0.144E+00
   9.465  0.512E+00  0.145E+00  0.308E-01  0.800E-01  0.800E-01  0.308E-01  0.145E+00
   9.467  0.433E+00  0.119E+00  0.258E-01  0.714E-01  0.714E-01  0.258E-01  0.119E+00
   9.469  0.434E+00  0.113E+00  0.242E-01  0.795E-01  0.795E-01  0.242E-01  0.113E+00
   9.471  0.261E+00  0.671E-01  0.132E-01  0.500E-01  0.500E-01  0.132E-01  0.671E-01
   9.473  0.459E+00  0.117E+00  0.218E-01  0.904E-01  0.904E-01  0.218E-01  0.117E+00
   9.475  0.181E+00  0.464E-01  0.860E-02  0.357E-01  0.357E-01  0.860E-02  0.464E-01
   9.477  0.100E-01  0.256E-02  0.480E-03  0.197E-02  0.197E-02  0.480E-03  0.256E-02
   9.479  0.210E-01  0.526E-02  0.134E-02  0.389E-02  0.389E-02  0.134E-02  0.526E-02
   9.481  0.236E+00  0.592E-01  0.151E-01  0.438E-01  0.438E-01  0.151E-01  0.592E-01
   9.483  0.363E+00  0.909E-01  0.233E-01  0.672E-01  0.672E-01  0.233E-01  0.909E-01
   9.485  0.160E+00  0.400E-01  0.117E-01  0.286E-01  0.286E-01  0.117E-01  0.400E-01
   9.487  0.550E+00  0.136E+00  0.474E-01  0.921E-01  0.921E-01  0.474E-01  0.136E+00
   9.489  0.479E+00  0.117E+00  0.444E-01  0.778E-01  0.778E-01  0.444E-01  0.117E+00
   9.491  0.635E-01  0.154E-01  0.620E-02  0.101E-01  0.101E-01  0.620E-02  0.154E-01
   9.493  0.126E+00  0.305E-01  0.101E-01  0.225E-01  0.225E-01  0.101E-01  0.305E-01
   9.495  0.349E+00  0.842E-01  0.279E-01  0.622E-01  0.622E-01  0.279E-01  0.842E-01
   9.497  0.161E+00  0.387E-01  0.139E-01  0.279E-01  0.279E-01  0.139E-01  0.387E-01
   9.499  0.229E+00  0.536E-01  0.259E-01  0.349E-01  0.349E-01  0.259E-01  0.536E-01
   9.501  0.247E+00  0.575E-01  0.279E-01  0.379E-01  0.379E-01  0.279E-01  0.575E-01
   9.503  0.198E+00  0.455E-01  0.202E-01  0.331E-01  0.331E-01  0.202E-01  0.455E-01
   9.505  0.347E+00  0.855E-01  0.231E-01  0.650E-01  0.650E-01  0.231E-01  0.855E-01
   9.507  0.454E+00  0.116E+00  0.221E-01  0.892E-01  0.892E-01  0.221E-01  0.116E+00
   9.509  0.114E+00  0.292E-01  0.540E-02  0.225E-01  0.225E-01  0.540E-02  0.292E-01
   9.511  0.397E-02  0.102E-02  0.188E-03  0.783E-03  0.783E-03  0.188E-03  0.102E-02
   9.513  0.187E-04  0.479E-05  0.885E-06  0.369E-05  0.369E-05  0.885E-06  0.479E-05
   9.515  0.120E-07  0.306E-08  0.565E-09  0.236E-08  0.236E-08  0.565E-09  0.306E-08
   9.517  0.103E-11  0.264E-12  0.488E-13  0.204E-12  0.204E-12  0.488E-13  0.264E-12
   9.519  0.366E-12  0.936E-13  0.172E-13  0.721E-13  0.721E-13  0.172E-13  0.936E-13
   9.521  0.517E-08  0.132E-08  0.243E-09  0.102E-08  0.102E-08  0.243E-09  0.132E-08
   9.523  0.988E-05  0.253E-05  0.465E-06  0.195E-05  0.195E-05  0.465E-06  0.253E-05
   9.525  0.256E-02  0.654E-03  0.120E-03  0.504E-03  0.504E-03  0.120E-03  0.654E-03
   9.527  0.895E-01  0.229E-01  0.421E-02  0.176E-01  0.176E-01  0.421E-02  0.229E-01
   9.529  0.424E+00  0.109E+00  0.199E-01  0.836E-01  0.836E-01  0.199E-01  0.109E+00
   9.531  0.272E+00  0.697E-01  0.128E-01  0.536E-01  0.536E-01  0.128E-01  0.697E-01
   9.533  0.236E-01  0.605E-02  0.111E-02  0.465E-02  0.465E-02  0.111E-02  0.605E-02
   9.535  0.277E-03  0.710E-04  0.130E-04  0.547E-04  0.547E-04  0.130E-04  0.710E-04
   9.537  0.441E-06  0.113E-06  0.207E-07  0.869E-07  0.869E-07  0.207E-07  0.113E-06
   9.539  0.949E-10  0.243E-10  0.446E-11  0.187E-10  0.187E-10  0.446E-11  0.243E-10
   9.541  0.545E-10  0.120E-10  0.607E-11  0.914E-11  0.914E-11  0.607E-11  0.120E-10
   9.543  0.233E-06  0.515E-07  0.260E-07  0.391E-07  0.391E-07  0.260E-07  0.515E-07
   9.545  0.135E-03  0.299E-04  0.151E-04  0.227E-04  0.227E-04  0.151E-04  0.299E-04
   9.547  0.106E-01  0.234E-02  0.118E-02  0.178E-02  0.178E-02  0.118E-02  0.234E-02
   9.549  0.113E+00  0.249E-01  0.126E-01  0.189E-01  0.189E-01  0.126E-01  0.249E-01
   9.551  0.162E+00  0.359E-01  0.181E-01  0.272E-01  0.272E-01  0.181E-01  0.359E-01
   9.553  0.566E-01  0.134E-01  0.468E-02  0.102E-01  0.102E-01  0.468E-02  0.134E-01
   9.555  0.281E+00  0.719E-01  0.131E-01  0.553E-01  0.553E-01  0.131E-01  0.719E-01
   9.557  0.423E+00  0.108E+00  0.197E-01  0.834E-01  0.834E-01  0.197E-01  0.108E+00
   9.559  0.866E-01  0.222E-01  0.404E-02  0.171E-01  0.171E-01  0.404E-02  0.222E-01
   9.561  0.240E-02  0.615E-03  0.112E-03  0.473E-03  0.473E-03  0.112E-03  0.615E-03
   9.563  0.900E-05  0.231E-05  0.419E-06  0.177E-05  0.177E-05  0.419E-06  0.231E-05
   9.565  0.457E-08  0.117E-08  0.213E-09  0.900E-09  0.900E-09  0.213E-09  0.117E-08
   9.567  0.314E-12  0.804E-13  0.146E-13  0.618E-13  0.618E-13  0.146E-13  0.804E-13
   9.569  0.291E-17  0.747E-18  0.136E-18  0.574E-18  0.574E-18  0.136E-18  0.747E-18
   9.571  0.000E+00  0.000E+00  0.000E+00  0.000E+00  0.000E+00  0.000E+00  0.000E+00
   9.573  0.000E+00  0.000E+00  0.000E+00  0.000E+00  0.000E+00  0.000E+00  0.000E+00
   9.575  0.452E-15  0.116E-15  0.205E-16  0.893E-16  0.893E-16  0.205E-16  0.116E-15
   9.577  0.213E-10  0.548E-11  0.964E-12  0.421E-11  0.421E-11  0.964E-12  0.548E-11
   9.579  0.136E-06  0.350E-07  0.615E-08  0.269E-07  0.269E-07  0.615E-08  0.350E-07
   9.581  0.117E-03  0.302E-04  0.531E-05  0.232E-04  0.232E-04  0.531E-05  0.302E-04
   9.583  0.137E-01  0.352E-02  0.620E-03  0.271E-02  0.271E-02  0.620E-03  0.352E-02
   9.585  0.217E+00  0.557E-01  0.980E-02  0.428E-01  0.428E-01  0.980E-02  0.557E-01
   9.587  0.464E+00  0.119E+00  0.210E-01  0.916E-01  0.916E-01  0.210E-01  0.119E+00
   9.589  0.134E+00  0.345E-01  0.607E-02  0.265E-01  0.265E-01  0.607E-02  0.345E-01
   9.591  0.529E-02  0.136E-02  0.241E-03  0.105E-02  0.105E-02  0.241E-03  0.136E-02
   9.593  0.489E-02  0.114E-02  0.421E-03  0.882E-03  0.882E-03  0.421E-03  0.114E-02
   9.595  0.940E-01  0.219E-01  0.811E-02  0.170E-01  0.170E-01  0.811E-02  0.219E-01
   9.597  0.246E+00  0.575E-01  0.212E-01  0.444E-01  0.444E-01  0.212E-01  0.575E-01
   9.599  0.872E-01  0.204E-01  0.753E-02  0.157E-01  0.157E-01  0.753E-02  0.204E-01
   9.601  0.418E-02  0.976E-03  0.361E-03  0.754E-03  0.754E-03  0.361E-03  0.976E-03
   9.603  0.272E-04  0.634E-05  0.234E-05  0.490E-05  0.490E-05  0.234E-05  0.634E-05
   9.605  0.238E-07  0.557E-08  0.206E-08  0.430E-08  0.430E-08  0.206E-08  0.557E-08
   9.607  0.284E-11  0.662E-12  0.245E-12  0.511E-12  0.511E-12  0.245E-12  0.662E-12
   9.609  0.456E-16  0.106E-16  0.394E-17  0.822E-17  0.822E-17  0.394E-17  0.106E-16
   9.611  0.000E+00  0.000E+00  0.000E+00  0.000E+00  0.000E+00  0.000E+00  0.000E+00
   9.613  0.230E-17  0.569E-18  0.141E-18  0.439E-18  0.439E-18  0.141E-18  0.569E-18
   9.615  0.248E-12  0.613E-13  0.152E-13  0.473E-13  0.473E-13  0.152E-13  0.613E-13
   9.617  0.361E-08  0.895E-09  0.221E-09  0.690E-09  0.690E-09  0.221E-09  0.895E-09
   9.619  0.713E-05  0.177E-05  0.437E-06  0.136E-05  0.136E-05  0.437E-06  0.177E-05
   9.621  0.191E-02  0.472E-03  0.117E-03  0.364E-03  0.364E-03  0.117E-03  0.472E-03
   9.623  0.689E-01  0.171E-01  0.422E-02  0.132E-01  0.132E-01  0.422E-02  0.171E-01
   9.625  0.337E+00  0.836E-01  0.207E-01  0.645E-01  0.645E-01  0.207E-01  0.836E-01
   9.627  0.224E+00  0.554E-01  0.137E-01  0.427E-01  0.427E-01  0.137E-01  0.554E-01
   9.629  0.200E-01  0.497E-02  0.123E-02  0.383E-02  0.383E-02  0.123E-02  0.497E-02
   9.631  0.243E-03  0.602E-04  0.149E-04  0.465E-04  0.465E-04  0.149E-04  0.602E-04
   9.633  0.399E-06  0.989E-07  0.244E-07  0.763E-07  0.763E-07  0.244E-07  0.989E-07
   9.635  0.887E-10  0.220E-10  0.543E-11  0.169E-10  0.169E-10  0.543E-11  0.220E-10
   9.637  0.267E-14  0.661E-15  0.163E-15  0.510E-15  0.510E-15  0.163E-15  0.661E-15
   9.639  0.229E-17  0.414E-18  0.390E-18  0.340E-18  0.340E-18  0.390E-18  0.414E-18
   9.641  0.213E-12  0.384E-13  0.362E-13  0.316E-13  0.316E-13  0.362E-13  0.384E-13
   9.643  0.268E-08  0.485E-09  0.456E-09  0.399E-09  0.399E-09  0.456E-09  0.485E-09
   9.645  0.461E-05  0.836E-06  0.777E-06  0.692E-06  0.692E-06  0.777E-06  0.836E-06
   9.647  0.111E-02  0.203E-03  0.181E-03  0.171E-03  0.171E-03  0.181E-03  0.203E-03
   9.649  0.410E-01  0.768E-02  0.593E-02  0.689E-02  0.689E-02  0.593E-02  0.768E-02
   9.651  0.287E+00  0.568E-01  0.301E-01  0.569E-01  0.569E-01  0.301E-01  0.568E-01
   9.653  0.539E+00  0.112E+00  0.333E-01  0.124E+00  0.124E+00  0.333E-01  0.112E+00
   9.655  0.506E+00  0.107E+00  0.216E-01  0.125E+00  0.125E+00  0.216E-01  0.107E+00
   9.657  0.178E+00  0.377E-01  0.721E-02  0.442E-01  0.442E-01  0.721E-02  0.377E-01
   9.659  0.516E-01  0.127E-01  0.249E-02  0.106E-01  0.106E-01  0.249E-02  0.127E-01
   9.661  0.327E+00  0.832E-01  0.164E-01  0.638E-01  0.638E-01  0.164E-01  0.832E-01
   9.663  0.350E+00  0.890E-01  0.175E-01  0.683E-01  0.683E-01  0.175E-01  0.890E-01
   9.665  0.507E-01  0.129E-01  0.254E-02  0.991E-02  0.991E-02  0.254E-02  0.129E-01
   9.667  0.999E-03  0.254E-03  0.500E-04  0.195E-03  0.195E-03  0.500E-04  0.254E-03
   9.669  0.142E-02  0.298E-03  0.599E-04  0.352E-03  0.352E-03  0.599E-04  0.298E-03
   9.671  0.615E-01  0.129E-01  0.260E-02  0.152E-01  0.152E-01  0.260E-02  0.129E-01
   9.673  0.378E+00  0.795E-01  0.164E-01  0.933E-01  0.933E-01  0.164E-01  0.795E-01
   9.675  0.462E+00  0.979E-01  0.230E-01  0.110E+00  0.110E+00  0.230E-01  0.979E-01
   9.677  0.243E+00  0.524E-01  0.144E-01  0.548E-01  0.548E-01  0.144E-01  0.524E-01
   9.679  0.349E-01  0.754E-02  0.215E-02  0.777E-02  0.777E-02  0.215E-02  0.754E-02
   9.681  0.757E-03  0.163E-03  0.467E-04  0.168E-03  0.168E-03  0.467E-04  0.163E-03
   9.683  0.224E-05  0.485E-06  0.139E-06  0.498E-06  0.498E-06  0.139E-06  0.485E-06
   9.685  0.901E-09  0.195E-09  0.556E-10  0.200E-09  0.200E-09  0.556E-10  0.195E-09
   9.687  0.489E-13  0.106E-13  0.302E-14  0.109E-13  0.109E-13  0.302E-14  0.106E-13
   9.689  0.295E-16  0.614E-17  0.134E-17  0.725E-17  0.725E-17  0.134E-17  0.614E-17
   9.691  0.213E-11  0.443E-12  0.967E-13  0.524E-12  0.524E-12  0.967E-13  0.443E-12
   9.693  0.211E-07  0.439E-08  0.958E-09  0.519E-08  0.519E-08  0.958E-09  0.439E-08
   9.695  0.282E-04  0.588E-05  0.129E-05  0.696E-05  0.696E-05  0.129E-05  0.588E-05
   9.697  0.514E-02  0.107E-02  0.236E-03  0.126E-02  0.126E-02  0.236E-03  0.107E-02
   9.699  0.129E+00  0.268E-01  0.622E-02  0.315E-01  0.315E-01  0.622E-02  0.268E-01
   9.701  0.516E+00  0.108E+00  0.307E-01  0.119E+00  0.119E+00  0.307E-01  0.108E+00
   9.703  0.674E+00  0.151E+00  0.513E-01  0.134E+00  0.134E+00  0.513E-01  0.151E+00
   9.705  0.422E+00  0.103E+00  0.276E-01  0.805E-01  0.805E-01  0.276E-01  0.103E+00
   9.707  0.538E-01  0.135E-01  0.299E-02  0.104E-01  0.104E-01  0.299E-02  0.135E-01
   9.709  0.101E-02  0.256E-03  0.518E-04  0.196E-03  0.196E-03  0.518E-04  0.256E-03
   9.711  0.262E-05  0.668E-06  0.131E-06  0.512E-06  0.512E-06  0.131E-06  0.668E-06
   9.713  0.930E-09  0.237E-09  0.459E-10  0.182E-09  0.182E-09  0.459E-10  0.237E-09
   9.715  0.143E-11  0.317E-12  0.123E-12  0.274E-12  0.274E-12  0.123E-12  0.317E-12
   9.717  0.125E-07  0.276E-08  0.109E-08  0.239E-08  0.239E-08  0.109E-08  0.276E-08
   9.719  0.152E-04  0.337E-05  0.133E-05  0.292E-05  0.292E-05  0.133E-05  0.337E-05
   9.721  0.252E-02  0.557E-03  0.220E-03  0.483E-03  0.483E-03  0.220E-03  0.557E-03
   9.723  0.564E-01  0.125E-01  0.491E-02  0.108E-01  0.108E-01  0.491E-02  0.125E-01
   9.725  0.171E+00  0.377E-01  0.149E-01  0.327E-01  0.327E-01  0.149E-01  0.377E-01
   9.727  0.699E-01  0.155E-01  0.610E-02  0.134E-01  0.134E-01  0.610E-02  0.155E-01
   9.729  0.437E-02  0.960E-03  0.362E-03  0.864E-03  0.864E-03  0.362E-03  0.960E-03
   9.731  0.329E-01  0.681E-02  0.161E-02  0.805E-02  0.805E-02  0.161E-02  0.681E-02
   9.733  0.296E+00  0.612E-01  0.144E-01  0.724E-01  0.724E-01  0.144E-01  0.612E-01
   9.735  0.361E+00  0.746E-01  0.176E-01  0.882E-01  0.882E-01  0.176E-01  0.746E-01
   9.737  0.595E-01  0.123E-01  0.290E-02  0.145E-01  0.145E-01  0.290E-02  0.123E-01
   9.739  0.133E-02  0.274E-03  0.647E-04  0.324E-03  0.324E-03  0.647E-04  0.274E-03
   9.741  0.401E-05  0.829E-06  0.196E-06  0.980E-06  0.980E-06  0.196E-06  0.829E-06
   9.743  0.551E-05  0.141E-05  0.268E-06  0.108E-05  0.108E-05  0.268E-06  0.141E-05
   9.745  0.168E-02  0.430E-03  0.819E-04  0.329E-03  0.329E-03  0.819E-04  0.430E-03
   9.747  0.696E-01  0.178E-01  0.339E-02  0.136E-01  0.136E-01  0.339E-02  0.178E-01
   9.749  0.389E+00  0.996E-01  0.190E-01  0.762E-01  0.762E-01  0.190E-01  0.996E-01
   9.751  0.295E+00  0.754E-01  0.144E-01  0.577E-01  0.577E-01  0.144E-01  0.754E-01
   9.753  0.359E-01  0.868E-02  0.250E-02  0.675E-02  0.675E-02  0.250E-02  0.868E-02
   9.755  0.795E-01  0.135E-01  0.145E-01  0.118E-01  0.118E-01  0.145E-01  0.135E-01
   9.757  0.150E+00  0.253E-01  0.274E-01  0.222E-01  0.222E-01  0.274E-01  0.253E-01
   9.759  0.385E-01  0.650E-02  0.704E-02  0.570E-02  0.570E-02  0.704E-02  0.650E-02
   9.761  0.134E-02  0.226E-03  0.244E-03  0.198E-03  0.198E-03  0.244E-03  0.226E-03
   9.763  0.630E-05  0.106E-05  0.115E-05  0.934E-06  0.934E-06  0.115E-05  0.106E-05
   9.765  0.189E-04  0.388E-05  0.987E-06  0.460E-05  0.460E-05  0.987E-06  0.388E-05
   9.767  0.391E-02  0.802E-03  0.204E-03  0.949E-03  0.949E-03  0.204E-03  0.802E-03
   9.769  0.109E+00  0.224E-01  0.569E-02  0.265E-01  0.265E-01  0.569E-02  0.224E-01
   9.771  0.414E+00  0.848E-01  0.215E-01  0.100E+00  0.100E+00  0.215E-01  0.848E-01
   9.773  0.212E+00  0.434E-01  0.110E-01  0.514E-01  0.514E-01  0.110E-01  0.434E-01
   9.775  0.163E-01  0.347E-02  0.882E-03  0.379E-02  0.379E-02  0.882E-03  0.347E-02
   9.777  0.478E-01  0.136E-01  0.348E-02  0.684E-02  0.684E-02  0.348E-02  0.136E-01
   9.779  0.191E+00  0.543E-01  0.139E-01  0.273E-01  0.273E-01  0.139E-01  0.543E-01
   9.781  0.103E+00  0.294E-01  0.752E-02  0.148E-01  0.148E-01  0.752E-02  0.294E-01
   9.783  0.758E-02  0.216E-02  0.552E-03  0.108E-02  0.108E-02  0.552E-03  0.216E-02
   9.785  0.752E-04  0.214E-04  0.547E-05  0.107E-04  0.107E-04  0.547E-05  0.214E-04
   9.787  0.652E-05  0.182E-05  0.535E-06  0.908E-06  0.908E-06  0.535E-06  0.182E-05
   9.789  0.166E-02  0.458E-03  0.138E-03  0.232E-03  0.232E-03  0.138E-03  0.458E-03
   9.791  0.598E-01  0.163E-01  0.511E-02  0.847E-02  0.847E-02  0.511E-02  0.163E-01
   9.793  0.313E+00  0.833E-01  0.279E-01  0.452E-01  0.452E-01  0.279E-01  0.833E-01
   9.795  0.259E+00  0.665E-01  0.240E-01  0.392E-01  0.392E-01  0.240E-01  0.665E-01
   9.797  0.235E+00  0.598E-01  0.130E-01  0.447E-01  0.447E-01  0.130E-01  0.598E-01
   9.799  0.439E+00  0.112E+00  0.213E-01  0.858E-01  0.858E-01  0.213E-01  0.112E+00
   9.801  0.127E+00  0.325E-01  0.616E-02  0.248E-01  0.248E-01  0.616E-02  0.325E-01
   9.803  0.695E-02  0.181E-02  0.412E-03  0.126E-02  0.126E-02  0.412E-03  0.181E-02
   9.805  0.418E-01  0.113E-01  0.361E-02  0.596E-02  0.596E-02  0.361E-02  0.113E-01
   9.807  0.121E+00  0.327E-01  0.105E-01  0.174E-01  0.174E-01  0.105E-01  0.327E-01
   9.809  0.118E+00  0.263E-01  0.108E-01  0.220E-01  0.220E-01  0.108E-01  0.263E-01
   9.811  0.478E+00  0.918E-01  0.444E-01  0.103E+00  0.103E+00  0.444E-01  0.918E-01
   9.813  0.427E+00  0.820E-01  0.391E-01  0.922E-01  0.922E-01  0.391E-01  0.820E-01
   9.815  0.519E-01  0.998E-02  0.469E-02  0.113E-01  0.113E-01  0.469E-02  0.998E-02
   9.817  0.854E-03  0.165E-03  0.763E-04  0.186E-03  0.186E-03  0.763E-04  0.165E-03
   9.819  0.717E-04  0.252E-04  0.302E-05  0.766E-05  0.766E-05  0.302E-05  0.252E-04
   9.821  0.767E-02  0.272E-02  0.314E-03  0.796E-03  0.796E-03  0.314E-03  0.272E-02
   9.823  0.114E+00  0.405E-01  0.466E-02  0.118E-01  0.118E-01  0.466E-02  0.405E-01
   9.825  0.230E+00  0.817E-01  0.941E-02  0.239E-01  0.239E-01  0.941E-02  0.817E-01
   9.827  0.811E-01  0.272E-01  0.437E-02  0.893E-02  0.893E-02  0.437E-02  0.272E-01
   9.829  0.203E+00  0.561E-01  0.190E-01  0.262E-01  0.262E-01  0.190E-01  0.561E-01
   9.831  0.473E+00  0.146E+00  0.341E-01  0.562E-01  0.562E-01  0.341E-01  0.146E+00
   9.833  0.488E+00  0.169E+00  0.232E-01  0.520E-01  0.520E-01  0.232E-01  0.169E+00
   9.835  0.122E+00  0.430E-01  0.525E-02  0.127E-01  0.127E-01  0.525E-02  0.430E-01
   9.837  0.451E-02  0.159E-02  0.193E-03  0.469E-03  0.469E-03  0.193E-03  0.159E-02
   9.839  0.230E-04  0.813E-05  0.991E-06  0.239E-05  0.239E-05  0.991E-06  0.813E-05
   9.841  0.161E-07  0.566E-08  0.695E-09  0.167E-08  0.167E-08  0.695E-09  0.566E-08
   9.843  0.640E-07  0.165E-07  0.309E-08  0.124E-07  0.124E-07  0.309E-08  0.165E-07
   9.845  0.675E-04  0.175E-04  0.324E-05  0.130E-04  0.130E-04  0.324E-05  0.175E-04
   9.847  0.990E-02  0.261E-02  0.472E-03  0.187E-02  0.187E-02  0.472E-03  0.261E-02
   9.849  0.209E+00  0.571E-01  0.982E-02  0.376E-01  0.376E-01  0.982E-02  0.571E-01
   9.851  0.675E+00  0.195E+00  0.309E-01  0.111E+00  0.111E+00  0.309E-01  0.195E+00
   9.853  0.442E+00  0.128E+00  0.207E-01  0.721E-01  0.721E-01  0.207E-01  0.128E+00
   9.855  0.431E+00  0.911E-01  0.248E-01  0.999E-01  0.999E-01  0.248E-01  0.911E-01
   9.857  0.243E+00  0.491E-01  0.142E-01  0.581E-01  0.581E-01  0.142E-01  0.491E-01
   9.859  0.253E-01  0.586E-02  0.148E-02  0.533E-02  0.533E-02  0.148E-02  0.586E-02
   9.861  0.722E-01  0.244E-01  0.413E-02  0.763E-02  0.763E-02  0.413E-02  0.244E-01
   9.863  0.128E+00  0.431E-01  0.732E-02  0.135E-01  0.135E-01  0.732E-02  0.431E-01
   9.865  0.391E-01  0.116E-01  0.350E-02  0.443E-02  0.443E-02  0.350E-02  0.116E-01
   9.867  0.934E-01  0.143E-01  0.192E-01  0.133E-01  0.133E-01  0.192E-01  0.143E-01
   9.869  0.137E+00  0.206E-01  0.283E-01  0.195E-01  0.195E-01  0.283E-01  0.206E-01
   9.871  0.277E-01  0.421E-02  0.572E-02  0.394E-02  0.394E-02  0.572E-02  0.421E-02
   9.873  0.210E-01  0.529E-02  0.259E-02  0.263E-02  0.263E-02  0.259E-02  0.529E-02
   9.875  0.201E+00  0.516E-01  0.239E-01  0.250E-01  0.250E-01  0.239E-01  0.516E-01
   9.877  0.343E+00  0.945E-01  0.358E-01  0.414E-01  0.414E-01  0.358E-01  0.945E-01
   9.879  0.395E+00  0.125E+00  0.278E-01  0.445E-01  0.445E-01  0.278E-01  0.125E+00
   9.881  0.258E+00  0.747E-01  0.231E-01  0.311E-01  0.311E-01  0.231E-01  0.747E-01
   9.883  0.428E-01  0.103E-01  0.534E-02  0.575E-02  0.575E-02  0.534E-02  0.103E-01
   9.885  0.163E-02  0.347E-03  0.236E-03  0.232E-03  0.232E-03  0.236E-03  0.347E-03
   9.887  0.107E-04  0.219E-05  0.160E-05  0.155E-05  0.155E-05  0.160E-05  0.219E-05
   9.889  0.102E-07  0.207E-08  0.154E-08  0.148E-08  0.148E-08  0.154E-08  0.207E-08
   9.891  0.141E-11  0.287E-12  0.207E-12  0.212E-12  0.212E-12  0.207E-12  0.287E-12
   9.893  0.144E-08  0.289E-09  0.895E-10  0.344E-09  0.344E-09  0.895E-10  0.289E-09
   9.895  0.364E-05  0.729E-06  0.226E-06  0.867E-06  0.867E-06  0.226E-06  0.729E-06
   9.897  0.124E-02  0.249E-03  0.770E-04  0.296E-03  0.296E-03  0.770E-04  0.249E-03
   9.899  0.574E-01  0.115E-01  0.356E-02  0.137E-01  0.137E-01  0.356E-02  0.115E-01
   9.901  0.360E+00  0.721E-01  0.223E-01  0.856E-01  0.856E-01  0.223E-01  0.721E-01
   9.903  0.350E+00  0.726E-01  0.210E-01  0.813E-01  0.813E-01  0.210E-01  0.726E-01
   9.905  0.378E+00  0.951E-01  0.187E-01  0.754E-01  0.754E-01  0.187E-01  0.951E-01
   9.907  0.349E+00  0.896E-01  0.168E-01  0.682E-01  0.682E-01  0.168E-01  0.896E-01
   9.909  0.515E-01  0.135E-01  0.246E-02  0.972E-02  0.972E-02  0.246E-02  0.135E-01
   9.911  0.863E-01  0.303E-01  0.378E-02  0.909E-02  0.909E-02  0.378E-02  0.303E-01
   9.913  0.278E+00  0.979E-01  0.122E-01  0.290E-01  0.290E-01  0.122E-01  0.979E-01
   9.915  0.139E+00  0.482E-01  0.674E-02  0.146E-01  0.146E-01  0.674E-02  0.482E-01
   9.917  0.792E-01  0.248E-01  0.632E-02  0.850E-02  0.850E-02  0.632E-02  0.248E-01
   9.919  0.420E-01  0.130E-01  0.350E-02  0.452E-02  0.452E-02  0.350E-02  0.130E-01
   9.921  0.101E-01  0.261E-02  0.129E-02  0.117E-02  0.117E-02  0.129E-02  0.261E-02
   9.923  0.140E+00  0.316E-01  0.217E-01  0.169E-01  0.169E-01  0.217E-01  0.316E-01
   9.925  0.428E+00  0.906E-01  0.705E-01  0.529E-01  0.529E-01  0.705E-01  0.906E-01
   9.927  0.205E+00  0.394E-01  0.369E-01  0.262E-01  0.262E-01  0.369E-01  0.394E-01
   9.929  0.159E-01  0.274E-02  0.311E-02  0.211E-02  0.211E-02  0.311E-02  0.274E-02
   9.931  0.196E-03  0.308E-04  0.405E-04  0.266E-04  0.266E-04  0.405E-04  0.308E-04
   9.933  0.361E-06  0.538E-07  0.771E-07  0.497E-07  0.497E-07  0.771E-07  0.538E-07
   9.935  0.951E-10  0.138E-10  0.206E-10  0.132E-10  0.132E-10  0.206E-10  0.138E-10
   9.937  0.347E-14  0.497E-15  0.758E-15  0.483E-15  0.483E-15  0.758E-15  0.497E-15
   9.939  0.592E-15  0.117E-15  0.387E-16  0.140E-15  0.140E-15  0.387E-16  0.117E-15
   9.941  0.262E-10  0.520E-11  0.171E-11  0.620E-11  0.620E-11  0.171E-11  0.520E-11
   9.943  0.157E-06  0.312E-07  0.103E-07  0.372E-07  0.372E-07  0.103E-07  0.312E-07
   9.945  0.128E-03  0.254E-04  0.835E-05  0.302E-04  0.302E-04  0.835E-05  0.254E-04
   9.947  0.142E-01  0.286E-02  0.926E-03  0.333E-02  0.333E-02  0.926E-03  0.286E-02
   9.949  0.226E+00  0.476E-01  0.144E-01  0.511E-01  0.511E-01  0.144E-01  0.476E-01
   9.951  0.601E+00  0.147E+00  0.356E-01  0.118E+00  0.118E+00  0.356E-01  0.147E+00
   9.953  0.360E+00  0.108E+00  0.186E-01  0.527E-01  0.527E-01  0.186E-01  0.108E+00
   9.955  0.490E-01  0.165E-01  0.231E-02  0.569E-02  0.569E-02  0.231E-02  0.165E-01
   9.957  0.113E-02  0.392E-03  0.519E-04  0.122E-03  0.122E-03  0.519E-04  0.392E-03
   9.959  0.179E-02  0.461E-03  0.862E-04  0.349E-03  0.349E-03  0.862E-04  0.461E-03
   9.961  0.721E-01  0.185E-01  0.347E-02  0.141E-01  0.141E-01  0.347E-02  0.185E-01
   9.963  0.393E+00  0.101E+00  0.189E-01  0.768E-01  0.768E-01  0.189E-01  0.101E+00
   9.965  0.291E+00  0.746E-01  0.140E-01  0.567E-01  0.567E-01  0.140E-01  0.746E-01
   9.967  0.290E-01  0.746E-02  0.140E-02  0.567E-02  0.567E-02  0.140E-02  0.746E-02
   9.969  0.288E-02  0.653E-03  0.434E-03  0.351E-03  0.351E-03  0.434E-03  0.653E-03
   9.971  0.746E-01  0.166E-01  0.125E-01  0.826E-02  0.826E-02  0.125E-01  0.166E-01
   9.973  0.303E+00  0.675E-01  0.507E-01  0.336E-01  0.336E-01  0.507E-01  0.675E-01
   9.975  0.167E+00  0.372E-01  0.279E-01  0.185E-01  0.185E-01  0.279E-01  0.372E-01
   9.977  0.170E-01  0.357E-02  0.300E-02  0.193E-02  0.193E-02  0.300E-02  0.357E-02
   9.979  0.378E-01  0.649E-02  0.768E-02  0.471E-02  0.471E-02  0.768E-02  0.649E-02
   9.981  0.104E+00  0.160E-01  0.222E-01  0.138E-01  0.138E-01  0.222E-01  0.160E-01
   9.983  0.144E+00  0.200E-01  0.325E-01  0.196E-01  0.196E-01  0.325E-01  0.200E-01
   9.985  0.443E-01  0.596E-02  0.101E-01  0.603E-02  0.603E-02  0.101E-01  0.596E-02
   9.987  0.205E-02  0.273E-03  0.471E-03  0.279E-03  0.279E-03  0.471E-03  0.273E-03
   9.989  0.192E-04  0.342E-05  0.373E-05  0.247E-05  0.247E-05  0.373E-05  0.342E-05
   9.991  0.119E-02  0.352E-03  0.114E-03  0.131E-03  0.131E-03  0.114E-03  0.352E-03
   9.993  0.414E-01  0.132E-01  0.302E-02  0.447E-02  0.447E-02  0.302E-02  0.132E-01
   9.995  0.245E+00  0.822E-01  0.143E-01  0.262E-01  0.262E-01  0.143E-01  0.822E-01
   9.997  0.226E+00  0.772E-01  0.116E-01  0.241E-01  0.241E-01  0.116E-01  0.772E-01
   9.999  0.805E-01  0.202E-01  0.495E-02  0.151E-01  0.151E-01  0.495E-02  0.202E-01
  10.001  0.347E+00  0.683E-01  0.239E-01  0.815E-01  0.815E-01  0.239E-01  0.683E-01
  10.003  0.319E+00  0.627E-01  0.220E-01  0.749E-01  0.749E-01  0.220E-01  0.627E-01
  10.005  0.397E-01  0.780E-02  0.273E-02  0.933E-02  0.933E-02  0.273E-02  0.780E-02
  10.007  0.670E-03  0.132E-03  0.461E-04  0.157E-03  0.157E-03  0.461E-04  0.132E-03
  10.009  0.153E-05  0.300E-06  0.105E-06  0.359E-06  0.359E-06  0.105E-06  0.300E-06
  10.011  0.497E-09  0.979E-10  0.373E-10  0.113E-09  0.113E-09  0.373E-10  0.979E-10
  10.013  0.146E-06  0.301E-07  0.274E-07  0.153E-07  0.153E-07  0.274E-07  0.301E-07
  10.015  0.112E-03  0.232E-04  0.211E-04  0.117E-04  0.117E-04  0.211E-04  0.232E-04
  10.017  0.117E-01  0.241E-02  0.219E-02  0.122E-02  0.122E-02  0.219E-02  0.241E-02
  10.019  0.166E+00  0.345E-01  0.310E-01  0.176E-01  0.176E-01  0.310E-01  0.345E-01
  10.021  0.389E+00  0.843E-01  0.626E-01  0.476E-01  0.476E-01  0.626E-01  0.843E-01
  10.023  0.479E+00  0.119E+00  0.343E-01  0.861E-01  0.861E-01  0.343E-01  0.119E+00
  10.025  0.285E+00  0.732E-01  0.141E-01  0.554E-01  0.554E-01  0.141E-01  0.732E-01
  10.027  0.271E-01  0.697E-02  0.130E-02  0.528E-02  0.528E-02  0.130E-02  0.697E-02
  10.029  0.353E-03  0.906E-04  0.171E-04  0.687E-04  0.687E-04  0.171E-04  0.906E-04
  10.031  0.249E-03  0.314E-04  0.598E-04  0.334E-04  0.334E-04  0.598E-04  0.314E-04
  10.033  0.105E-01  0.132E-02  0.252E-02  0.141E-02  0.141E-02  0.252E-02  0.132E-02
  10.035  0.599E-01  0.752E-02  0.144E-01  0.803E-02  0.803E-02  0.144E-01  0.752E-02
  10.037  0.464E-01  0.583E-02  0.111E-01  0.622E-02  0.622E-02  0.111E-01  0.583E-02
  10.039  0.145E-01  0.288E-02  0.263E-02  0.172E-02  0.172E-02  0.263E-02  0.288E-02
  10.041  0.151E+00  0.391E-01  0.199E-01  0.167E-01  0.167E-01  0.199E-01  0.391E-01
  10.043  0.528E+00  0.151E+00  0.555E-01  0.574E-01  0.574E-01  0.555E-01  0.151E+00
  10.045  0.420E+00  0.120E+00  0.425E-01  0.471E-01  0.471E-01  0.425E-01  0.120E+00
  10.047  0.429E+00  0.823E-01  0.710E-01  0.613E-01  0.613E-01  0.710E-01  0.823E-01
  10.049  0.512E+00  0.926E-01  0.885E-01  0.751E-01  0.751E-01  0.885E-01  0.926E-01
  10.051  0.258E+00  0.456E-01  0.454E-01  0.380E-01  0.380E-01  0.454E-01  0.456E-01
  10.053  0.520E+00  0.960E-01  0.791E-01  0.847E-01  0.847E-01  0.791E-01  0.960E-01
  10.055  0.832E+00  0.159E+00  0.101E+00  0.156E+00  0.156E+00  0.101E+00  0.159E+00
  10.057  0.306E+00  0.585E-01  0.314E-01  0.629E-01  0.629E-01  0.314E-01  0.585E-01
  10.059  0.772E-01  0.131E-01  0.130E-01  0.125E-01  0.125E-01  0.130E-01  0.131E-01
  10.061  0.673E-01  0.131E-01  0.113E-01  0.927E-02  0.927E-02  0.113E-01  0.131E-01
  10.063  0.397E+00  0.902E-01  0.572E-01  0.513E-01  0.513E-01  0.572E-01  0.902E-01
  10.065  0.799E+00  0.175E+00  0.125E+00  0.994E-01  0.994E-01  0.125E+00  0.175E+00
  10.067  0.453E+00  0.918E-01  0.849E-01  0.499E-01  0.499E-01  0.849E-01  0.918E-01
  10.069  0.804E-01  0.157E-01  0.163E-01  0.820E-02  0.820E-02  0.163E-01  0.157E-01
  10.071  0.252E-02  0.487E-03  0.518E-03  0.253E-03  0.253E-03  0.518E-03  0.487E-03
  10.073  0.156E-03  0.301E-04  0.255E-04  0.226E-04  0.226E-04  0.255E-04  0.301E-04
  10.075  0.154E-01  0.296E-02  0.246E-02  0.227E-02  0.227E-02  0.246E-02  0.296E-02
  10.077  0.220E+00  0.424E-01  0.352E-01  0.325E-01  0.325E-01  0.352E-01  0.424E-01
  10.079  0.427E+00  0.823E-01  0.683E-01  0.631E-01  0.631E-01  0.683E-01  0.823E-01
  10.081  0.115E+00  0.223E-01  0.181E-01  0.171E-01  0.171E-01  0.181E-01  0.223E-01
  10.083  0.965E-01  0.246E-01  0.507E-02  0.186E-01  0.186E-01  0.507E-02  0.246E-01
  10.085  0.416E+00  0.107E+00  0.199E-01  0.810E-01  0.810E-01  0.199E-01  0.107E+00
  10.087  0.253E+00  0.652E-01  0.121E-01  0.493E-01  0.493E-01  0.121E-01  0.652E-01
  10.089  0.209E-01  0.537E-02  0.999E-03  0.406E-02  0.406E-02  0.999E-03  0.537E-02
  10.091  0.220E-02  0.677E-03  0.151E-03  0.273E-03  0.273E-03  0.151E-03  0.677E-03
  10.093  0.829E-01  0.241E-01  0.727E-02  0.101E-01  0.101E-01  0.727E-02  0.241E-01
  10.095  0.545E+00  0.143E+00  0.594E-01  0.706E-01  0.706E-01  0.594E-01  0.143E+00
  10.097  0.567E+00  0.133E+00  0.730E-01  0.777E-01  0.777E-01  0.730E-01  0.133E+00
  10.099  0.927E-01  0.201E-01  0.131E-01  0.131E-01  0.131E-01  0.131E-01  0.201E-01
  10.101  0.661E-01  0.200E-01  0.622E-02  0.681E-02  0.681E-02  0.622E-02  0.200E-01
  10.103  0.272E+00  0.833E-01  0.251E-01  0.277E-01  0.277E-01  0.251E-01  0.833E-01
  10.105  0.157E+00  0.480E-01  0.144E-01  0.159E-01  0.159E-01  0.144E-01  0.480E-01
  10.107  0.256E-01  0.629E-02  0.241E-02  0.408E-02  0.408E-02  0.241E-02  0.629E-02
  10.109  0.256E+00  0.485E-01  0.289E-01  0.503E-01  0.503E-01  0.289E-01  0.485E-01
  10.111  0.734E+00  0.138E+00  0.101E+00  0.128E+00  0.128E+00  0.101E+00  0.138E+00
  10.113  0.332E+00  0.618E-01  0.544E-01  0.496E-01  0.496E-01  0.544E-01  0.618E-01
  10.115  0.159E+00  0.308E-01  0.257E-01  0.231E-01  0.231E-01  0.257E-01  0.308E-01
  10.117  0.471E+00  0.918E-01  0.740E-01  0.697E-01  0.697E-01  0.740E-01  0.918E-01
  10.119  0.219E+00  0.428E-01  0.344E-01  0.325E-01  0.325E-01  0.344E-01  0.428E-01
  10.121  0.138E-01  0.270E-02  0.217E-02  0.205E-02  0.205E-02  0.217E-02  0.270E-02
  10.123  0.118E-03  0.230E-04  0.185E-04  0.175E-04  0.175E-04  0.185E-04  0.230E-04
  10.125  0.136E-06  0.266E-07  0.214E-07  0.202E-07  0.202E-07  0.214E-07  0.266E-07
  10.127  0.213E-10  0.415E-11  0.334E-11  0.315E-11  0.315E-11  0.334E-11  0.415E-11
  10.129  0.287E-11  0.299E-12  0.598E-13  0.108E-11  0.108E-11  0.598E-13  0.299E-12
  10.131  0.880E-08  0.917E-09  0.184E-09  0.330E-08  0.330E-08  0.184E-09  0.917E-09
  10.133  0.368E-05  0.386E-06  0.808E-07  0.137E-05  0.137E-05  0.808E-07  0.386E-06
  10.135  0.244E-03  0.289E-04  0.103E-04  0.827E-04  0.827E-04  0.103E-04  0.289E-04
  10.137  0.816E-02  0.145E-02  0.106E-02  0.156E-02  0.156E-02  0.106E-02  0.145E-02
  10.139  0.156E+00  0.303E-01  0.241E-01  0.235E-01  0.235E-01  0.241E-01  0.303E-01
  10.141  0.487E+00  0.953E-01  0.761E-01  0.724E-01  0.724E-01  0.761E-01  0.953E-01
  10.143  0.209E+00  0.408E-01  0.326E-01  0.309E-01  0.309E-01  0.326E-01  0.408E-01
  10.145  0.246E-01  0.561E-02  0.249E-02  0.423E-02  0.423E-02  0.249E-02  0.561E-02
  10.147  0.208E+00  0.542E-01  0.998E-02  0.399E-01  0.399E-01  0.998E-02  0.542E-01
  10.149  0.552E+00  0.152E+00  0.268E-01  0.976E-01  0.976E-01  0.268E-01  0.152E+00
  10.151  0.389E+00  0.121E+00  0.196E-01  0.534E-01  0.534E-01  0.196E-01  0.121E+00
  10.153  0.119E+00  0.345E-01  0.122E-01  0.129E-01  0.129E-01  0.122E-01  0.345E-01
  10.155  0.315E+00  0.629E-01  0.646E-01  0.299E-01  0.299E-01  0.646E-01  0.629E-01
  10.157  0.547E+00  0.136E+00  0.850E-01  0.529E-01  0.529E-01  0.850E-01  0.136E+00
  10.159  0.233E+00  0.692E-01  0.245E-01  0.230E-01  0.230E-01  0.245E-01  0.692E-01
  10.161  0.194E-01  0.610E-02  0.166E-02  0.193E-02  0.193E-02  0.166E-02  0.610E-02
  10.163  0.503E-02  0.743E-03  0.105E-02  0.720E-03  0.720E-03  0.105E-02  0.743E-03
  10.165  0.191E+00  0.284E-01  0.375E-01  0.293E-01  0.293E-01  0.375E-01  0.284E-01
  10.167  0.120E+01  0.187E+00  0.220E+00  0.195E+00  0.195E+00  0.220E+00  0.187E+00
  10.169  0.121E+01  0.187E+00  0.215E+00  0.202E+00  0.202E+00  0.215E+00  0.187E+00
  10.171  0.516E+00  0.613E-01  0.119E+00  0.775E-01  0.775E-01  0.119E+00  0.613E-01
  10.173  0.212E+01  0.216E+00  0.549E+00  0.294E+00  0.294E+00  0.549E+00  0.216E+00
  10.175  0.228E+01  0.233E+00  0.597E+00  0.311E+00  0.311E+00  0.597E+00  0.233E+00
  10.177  0.110E+01  0.115E+00  0.290E+00  0.144E+00  0.144E+00  0.290E+00  0.115E+00
  10.179  0.866E+00  0.101E+00  0.219E+00  0.112E+00  0.112E+00  0.219E+00  0.101E+00
  10.181  0.102E+01  0.123E+00  0.258E+00  0.128E+00  0.128E+00  0.258E+00  0.123E+00
  10.183  0.839E+00  0.992E-01  0.225E+00  0.958E-01  0.958E-01  0.225E+00  0.992E-01
  10.185  0.145E+01  0.168E+00  0.391E+00  0.166E+00  0.166E+00  0.391E+00  0.168E+00
  10.187  0.242E+01  0.277E+00  0.668E+00  0.268E+00  0.268E+00  0.668E+00  0.277E+00
  10.189  0.155E+01  0.175E+00  0.433E+00  0.167E+00  0.167E+00  0.433E+00  0.175E+00
  10.191  0.853E+00  0.983E-01  0.229E+00  0.988E-01  0.988E-01  0.229E+00  0.983E-01
  10.193  0.110E+01  0.123E+00  0.302E+00  0.126E+00  0.126E+00  0.302E+00  0.123E+00
  10.195  0.119E+01  0.145E+00  0.315E+00  0.134E+00  0.134E+00  0.315E+00  0.145E+00
  10.197  0.150E+01  0.213E+00  0.354E+00  0.181E+00  0.181E+00  0.354E+00  0.213E+00
  10.199  0.146E+01  0.199E+00  0.356E+00  0.173E+00  0.173E+00  0.356E+00  0.199E+00
  10.201  0.121E+01  0.154E+00  0.311E+00  0.139E+00  0.139E+00  0.311E+00  0.154E+00
  10.203  0.292E+00  0.364E-01  0.756E-01  0.342E-01  0.342E-01  0.756E-01  0.364E-01
  10.205  0.107E+00  0.134E-01  0.279E-01  0.124E-01  0.124E-01  0.279E-01  0.134E-01
  10.207  0.583E+00  0.819E-01  0.144E+00  0.660E-01  0.660E-01  0.144E+00  0.819E-01
  10.209  0.114E+01  0.186E+00  0.256E+00  0.127E+00  0.127E+00  0.256E+00  0.186E+00
  10.211  0.101E+01  0.170E+00  0.207E+00  0.129E+00  0.129E+00  0.207E+00  0.170E+00
  10.213  0.102E+01  0.181E+00  0.180E+00  0.150E+00  0.150E+00  0.180E+00  0.181E+00
  10.215  0.970E+00  0.133E+00  0.230E+00  0.122E+00  0.122E+00  0.230E+00  0.133E+00
  10.217  0.625E+00  0.754E-01  0.164E+00  0.732E-01  0.732E-01  0.164E+00  0.754E-01
  10.219  0.662E+00  0.790E-01  0.173E+00  0.790E-01  0.790E-01  0.173E+00  0.790E-01
  10.221  0.774E+00  0.113E+00  0.181E+00  0.933E-01  0.933E-01  0.181E+00  0.113E+00
  10.223  0.754E+00  0.151E+00  0.139E+00  0.862E-01  0.862E-01  0.139E+00  0.151E+00
  10.225  0.493E+00  0.806E-01  0.937E-01  0.724E-01  0.724E-01  0.937E-01  0.806E-01
  10.227  0.106E+01  0.151E+00  0.193E+00  0.183E+00  0.183E+00  0.193E+00  0.151E+00
  10.229  0.149E+01  0.223E+00  0.302E+00  0.220E+00  0.220E+00  0.302E+00  0.223E+00
  10.231  0.157E+01  0.196E+00  0.393E+00  0.195E+00  0.195E+00  0.393E+00  0.196E+00
  10.233  0.940E+00  0.110E+00  0.252E+00  0.108E+00  0.108E+00  0.252E+00  0.110E+00
  10.235  0.137E+00  0.162E-01  0.370E-01  0.155E-01  0.155E-01  0.370E-01  0.162E-01
  10.237  0.316E-02  0.376E-03  0.853E-03  0.353E-03  0.353E-03  0.853E-03  0.376E-03
  10.239  0.156E-01  0.180E-02  0.422E-02  0.178E-02  0.178E-02  0.422E-02  0.180E-02
  10.241  0.377E+00  0.432E-01  0.102E+00  0.428E-01  0.428E-01  0.102E+00  0.432E-01
  10.243  0.136E+01  0.157E+00  0.371E+00  0.153E+00  0.153E+00  0.371E+00  0.157E+00
  10.245  0.107E+01  0.133E+00  0.291E+00  0.113E+00  0.113E+00  0.291E+00  0.133E+00
  10.247  0.365E+00  0.473E-01  0.101E+00  0.344E-01  0.344E-01  0.101E+00  0.473E-01
  10.249  0.682E-01  0.795E-02  0.189E-01  0.722E-02  0.722E-02  0.189E-01  0.795E-02
  10.251  0.298E+00  0.329E-01  0.789E-01  0.372E-01  0.372E-01  0.789E-01  0.329E-01
  10.253  0.429E+00  0.471E-01  0.114E+00  0.536E-01  0.536E-01  0.114E+00  0.471E-01
  10.255  0.337E+00  0.343E-01  0.918E-01  0.426E-01  0.426E-01  0.918E-01  0.343E-01
  10.257  0.765E+00  0.819E-01  0.207E+00  0.938E-01  0.938E-01  0.207E+00  0.819E-01
  10.259  0.530E+00  0.596E-01  0.141E+00  0.643E-01  0.643E-01  0.141E+00  0.596E-01
  10.261  0.787E+00  0.958E-01  0.198E+00  0.996E-01  0.996E-01  0.198E+00  0.958E-01
  10.263  0.111E+01  0.167E+00  0.242E+00  0.145E+00  0.145E+00  0.242E+00  0.167E+00
  10.265  0.418E+00  0.732E-01  0.774E-01  0.582E-01  0.582E-01  0.774E-01  0.732E-01
  10.267  0.586E-01  0.908E-02  0.125E-01  0.773E-02  0.773E-02  0.125E-01  0.908E-02
  10.269  0.399E+00  0.557E-01  0.972E-01  0.465E-01  0.465E-01  0.972E-01  0.557E-01
  10.271  0.107E+01  0.174E+00  0.240E+00  0.122E+00  0.122E+00  0.240E+00  0.174E+00
  10.273  0.122E+01  0.185E+00  0.288E+00  0.136E+00  0.136E+00  0.288E+00  0.185E+00
  10.275  0.679E+00  0.105E+00  0.150E+00  0.854E-01  0.854E-01  0.150E+00  0.105E+00
  10.277  0.605E+00  0.128E+00  0.680E-01  0.107E+00  0.107E+00  0.680E-01  0.128E+00
  10.279  0.518E+00  0.822E-01  0.930E-01  0.840E-01  0.840E-01  0.930E-01  0.822E-01
  10.281  0.108E+00  0.118E-01  0.264E-01  0.158E-01  0.158E-01  0.264E-01  0.118E-01
  10.283  0.703E-02  0.686E-03  0.183E-02  0.998E-03  0.998E-03  0.183E-02  0.686E-03
  10.285  0.110E+00  0.130E-01  0.248E-01  0.171E-01  0.171E-01  0.248E-01  0.130E-01
  10.287  0.650E+00  0.881E-01  0.125E+00  0.111E+00  0.111E+00  0.125E+00  0.881E-01
  10.289  0.952E+00  0.140E+00  0.186E+00  0.150E+00  0.150E+00  0.186E+00  0.140E+00
  10.291  0.885E+00  0.122E+00  0.220E+00  0.101E+00  0.101E+00  0.220E+00  0.122E+00
  10.293  0.233E+00  0.311E-01  0.605E-01  0.247E-01  0.247E-01  0.605E-01  0.311E-01
  10.295  0.507E-01  0.123E-01  0.689E-02  0.617E-02  0.617E-02  0.689E-02  0.123E-01
  10.297  0.442E+00  0.990E-01  0.673E-01  0.550E-01  0.550E-01  0.673E-01  0.990E-01
  10.299  0.138E+01  0.236E+00  0.281E+00  0.173E+00  0.173E+00  0.281E+00  0.236E+00
  10.301  0.172E+01  0.242E+00  0.406E+00  0.210E+00  0.210E+00  0.406E+00  0.242E+00
  10.303  0.589E+00  0.739E-01  0.151E+00  0.689E-01  0.689E-01  0.151E+00  0.739E-01
  10.305  0.462E-01  0.543E-02  0.123E-01  0.536E-02  0.536E-02  0.123E-01  0.543E-02
  10.307  0.245E+00  0.277E-01  0.649E-01  0.300E-01  0.300E-01  0.649E-01  0.277E-01
  10.309  0.858E+00  0.954E-01  0.227E+00  0.107E+00  0.107E+00  0.227E+00  0.954E-01
  10.311  0.430E+00  0.470E-01  0.114E+00  0.545E-01  0.545E-01  0.114E+00  0.470E-01
  10.313  0.309E-01  0.332E-02  0.816E-02  0.397E-02  0.397E-02  0.816E-02  0.332E-02
  10.315  0.316E-03  0.334E-04  0.833E-04  0.411E-04  0.411E-04  0.833E-04  0.334E-04
  10.317  0.158E-04  0.173E-05  0.417E-05  0.200E-05  0.200E-05  0.417E-05  0.173E-05
  10.319  0.324E-02  0.355E-03  0.857E-03  0.410E-03  0.410E-03  0.857E-03  0.355E-03
  10.321  0.928E-01  0.102E-01  0.245E-01  0.117E-01  0.117E-01  0.245E-01  0.102E-01
  10.323  0.364E+00  0.399E-01  0.961E-01  0.459E-01  0.459E-01  0.961E-01  0.399E-01
  10.325  0.336E+00  0.385E-01  0.885E-01  0.408E-01  0.408E-01  0.885E-01  0.385E-01
  10.327  0.775E+00  0.935E-01  0.204E+00  0.898E-01  0.898E-01  0.204E+00  0.935E-01
  10.329  0.663E+00  0.793E-01  0.175E+00  0.768E-01  0.768E-01  0.175E+00  0.793E-01
  10.331  0.966E-01  0.115E-01  0.256E-01  0.112E-01  0.112E-01  0.256E-01  0.115E-01
  10.333  0.503E-01  0.799E-02  0.117E-01  0.546E-02  0.546E-02  0.117E-01  0.799E-02
  10.335  0.654E+00  0.107E+00  0.149E+00  0.709E-01  0.709E-01  0.149E+00  0.107E+00
  10.337  0.143E+01  0.240E+00  0.312E+00  0.163E+00  0.163E+00  0.312E+00  0.240E+00
  10.339  0.107E+01  0.194E+00  0.189E+00  0.151E+00  0.151E+00  0.189E+00  0.194E+00
  10.341  0.874E+00  0.169E+00  0.122E+00  0.147E+00  0.147E+00  0.122E+00  0.169E+00
  10.343  0.292E+00  0.594E-01  0.352E-01  0.512E-01  0.512E-01  0.352E-01  0.594E-01
  10.345  0.679E-01  0.101E-01  0.148E-01  0.902E-02  0.902E-02  0.148E-01  0.101E-01
  10.347  0.574E+00  0.740E-01  0.143E+00  0.695E-01  0.695E-01  0.143E+00  0.740E-01
  10.349  0.105E+01  0.143E+00  0.234E+00  0.147E+00  0.147E+00  0.234E+00  0.143E+00
  10.351  0.612E+00  0.978E-01  0.904E-01  0.118E+00  0.118E+00  0.904E-01  0.978E-01
  10.353  0.123E+00  0.214E-01  0.135E-01  0.268E-01  0.268E-01  0.135E-01  0.214E-01
  10.355  0.431E-01  0.543E-02  0.106E-01  0.546E-02  0.546E-02  0.106E-01  0.543E-02
  10.357  0.338E+00  0.407E-01  0.890E-01  0.393E-01  0.393E-01  0.890E-01  0.407E-01
  10.359  0.419E+00  0.491E-01  0.111E+00  0.494E-01  0.494E-01  0.111E+00  0.491E-01
  10.361  0.272E+00  0.201E-01  0.786E-01  0.373E-01  0.373E-01  0.786E-01  0.201E-01
  10.363  0.405E+00  0.305E-01  0.118E+00  0.543E-01  0.543E-01  0.118E+00  0.305E-01
  10.365  0.695E+00  0.694E-01  0.193E+00  0.848E-01  0.848E-01  0.193E+00  0.694E-01
  10.367  0.518E+00  0.546E-01  0.141E+00  0.635E-01  0.635E-01  0.141E+00  0.546E-01
  10.369  0.522E+00  0.583E-01  0.141E+00  0.620E-01  0.620E-01  0.141E+00  0.583E-01
  10.371  0.351E+00  0.342E-01  0.988E-01  0.423E-01  0.423E-01  0.988E-01  0.342E-01
  10.373  0.193E+00  0.173E-01  0.581E-01  0.212E-01  0.212E-01  0.581E-01  0.173E-01
  10.375  0.353E+00  0.447E-01  0.910E-01  0.408E-01  0.408E-01  0.910E-01  0.447E-01
  10.377  0.627E+00  0.133E+00  0.105E+00  0.746E-01  0.746E-01  0.105E+00  0.133E+00
  10.379  0.858E+00  0.203E+00  0.112E+00  0.113E+00  0.113E+00  0.112E+00  0.203E+00
  10.381  0.403E+00  0.822E-01  0.646E-01  0.550E-01  0.550E-01  0.646E-01  0.822E-01
  10.383  0.323E+00  0.487E-01  0.835E-01  0.295E-01  0.295E-01  0.835E-01  0.487E-01
  10.385  0.240E+00  0.352E-01  0.641E-01  0.207E-01  0.207E-01  0.641E-01  0.352E-01
  10.387  0.427E-01  0.575E-02  0.114E-01  0.420E-02  0.420E-02  0.114E-01  0.575E-02
  10.389  0.309E+00  0.360E-01  0.825E-01  0.362E-01  0.362E-01  0.825E-01  0.360E-01
  10.391  0.895E+00  0.105E+00  0.238E+00  0.105E+00  0.105E+00  0.238E+00  0.105E+00
  10.393  0.417E+00  0.490E-01  0.111E+00  0.488E-01  0.488E-01  0.111E+00  0.490E-01
  10.395  0.306E-01  0.361E-02  0.809E-02  0.358E-02  0.358E-02  0.809E-02  0.361E-02
  10.397  0.343E-03  0.417E-04  0.889E-04  0.408E-04  0.408E-04  0.889E-04  0.417E-04
  10.399  0.256E-02  0.636E-03  0.176E-03  0.468E-03  0.468E-03  0.176E-03  0.636E-03
  10.401  0.115E+00  0.276E-01  0.103E-01  0.199E-01  0.199E-01  0.103E-01  0.276E-01
  10.403  0.857E+00  0.190E+00  0.105E+00  0.133E+00  0.133E+00  0.105E+00  0.190E+00
  10.405  0.122E+01  0.232E+00  0.212E+00  0.164E+00  0.164E+00  0.212E+00  0.232E+00
  10.407  0.612E+00  0.734E-01  0.155E+00  0.779E-01  0.779E-01  0.155E+00  0.734E-01
  10.409  0.455E+00  0.391E-01  0.127E+00  0.613E-01  0.613E-01  0.127E+00  0.391E-01
  10.411  0.508E+00  0.538E-01  0.134E+00  0.663E-01  0.663E-01  0.134E+00  0.538E-01
  10.413  0.719E+00  0.979E-01  0.151E+00  0.111E+00  0.111E+00  0.151E+00  0.979E-01
  10.415  0.506E+00  0.845E-01  0.670E-01  0.102E+00  0.102E+00  0.670E-01  0.845E-01
  10.417  0.203E+00  0.291E-01  0.390E-01  0.334E-01  0.334E-01  0.390E-01  0.291E-01
  10.419  0.391E+00  0.492E-01  0.973E-01  0.490E-01  0.490E-01  0.973E-01  0.492E-01
  10.421  0.555E+00  0.958E-01  0.102E+00  0.797E-01  0.797E-01  0.102E+00  0.958E-01
  10.423  0.414E+00  0.782E-01  0.665E-01  0.622E-01  0.622E-01  0.665E-01  0.782E-01
  10.425  0.160E+00  0.223E-01  0.367E-01  0.210E-01  0.210E-01  0.367E-01  0.223E-01
  10.427  0.669E+00  0.744E-01  0.175E+00  0.849E-01  0.849E-01  0.175E+00  0.744E-01
  10.429  0.123E+01  0.119E+00  0.312E+00  0.182E+00  0.182E+00  0.312E+00  0.119E+00
  10.431  0.271E+01  0.240E+00  0.675E+00  0.442E+00  0.442E+00  0.675E+00  0.240E+00
  10.433  0.326E+01  0.307E+00  0.796E+00  0.528E+00  0.528E+00  0.796E+00  0.307E+00
  10.435  0.330E+01  0.266E+00  0.830E+00  0.552E+00  0.552E+00  0.830E+00  0.266E+00
  10.437  0.143E+01  0.111E+00  0.359E+00  0.246E+00  0.246E+00  0.359E+00  0.111E+00
  10.439  0.645E+00  0.815E-01  0.121E+00  0.120E+00  0.120E+00  0.121E+00  0.815E-01
  10.441  0.699E+00  0.705E-01  0.142E+00  0.137E+00  0.137E+00  0.142E+00  0.705E-01
  10.443  0.103E+01  0.911E-01  0.224E+00  0.198E+00  0.198E+00  0.224E+00  0.911E-01
  10.445  0.137E+01  0.132E+00  0.291E+00  0.263E+00  0.263E+00  0.291E+00  0.132E+00
  10.447  0.117E+01  0.807E-01  0.294E+00  0.208E+00  0.208E+00  0.294E+00  0.807E-01
  10.449  0.874E+00  0.384E-01  0.248E+00  0.151E+00  0.151E+00  0.248E+00  0.384E-01
  10.451  0.507E+00  0.427E-01  0.121E+00  0.897E-01  0.897E-01  0.121E+00  0.427E-01
  10.453  0.635E+00  0.805E-01  0.128E+00  0.109E+00  0.109E+00  0.128E+00  0.805E-01
  10.455  0.715E+00  0.895E-01  0.161E+00  0.107E+00  0.107E+00  0.161E+00  0.895E-01
  10.457  0.132E+01  0.119E+00  0.327E+00  0.213E+00  0.213E+00  0.327E+00  0.119E+00
  10.459  0.154E+01  0.165E+00  0.334E+00  0.271E+00  0.271E+00  0.334E+00  0.165E+00
  10.461  0.858E+00  0.164E+00  0.129E+00  0.136E+00  0.136E+00  0.129E+00  0.164E+00
  10.463  0.800E+00  0.175E+00  0.879E-01  0.137E+00  0.137E+00  0.879E-01  0.175E+00
  10.465  0.204E+01  0.308E+00  0.394E+00  0.316E+00  0.316E+00  0.394E+00  0.308E+00
  10.467  0.231E+01  0.274E+00  0.530E+00  0.351E+00  0.351E+00  0.530E+00  0.274E+00
  10.469  0.135E+01  0.119E+00  0.347E+00  0.208E+00  0.208E+00  0.347E+00  0.119E+00
  10.471  0.435E+00  0.310E-01  0.119E+00  0.677E-01  0.677E-01  0.119E+00  0.310E-01
  10.473  0.879E-01  0.200E-01  0.125E-01  0.115E-01  0.115E-01  0.125E-01  0.200E-01
  10.475  0.409E+00  0.914E-01  0.643E-01  0.487E-01  0.487E-01  0.643E-01  0.914E-01
  10.477  0.136E+01  0.177E+00  0.312E+00  0.191E+00  0.191E+00  0.312E+00  0.177E+00
  10.479  0.237E+01  0.280E+00  0.518E+00  0.388E+00  0.388E+00  0.518E+00  0.280E+00
  10.481  0.146E+01  0.156E+00  0.315E+00  0.260E+00  0.260E+00  0.315E+00  0.156E+00
  10.483  0.788E+00  0.653E-01  0.177E+00  0.152E+00  0.152E+00  0.177E+00  0.653E-01
  10.485  0.630E+00  0.591E-01  0.149E+00  0.106E+00  0.106E+00  0.149E+00  0.591E-01
  10.487  0.120E+00  0.117E-01  0.291E-01  0.191E-01  0.191E-01  0.291E-01  0.117E-01
  10.489  0.522E-02  0.498E-03  0.127E-02  0.838E-03  0.838E-03  0.127E-02  0.498E-03
  10.491  0.908E-01  0.880E-02  0.212E-01  0.155E-01  0.155E-01  0.212E-01  0.880E-02
  10.493  0.635E+00  0.674E-01  0.142E+00  0.108E+00  0.108E+00  0.142E+00  0.674E-01
  10.495  0.793E+00  0.851E-01  0.180E+00  0.131E+00  0.131E+00  0.180E+00  0.851E-01
  10.497  0.105E+01  0.758E-01  0.290E+00  0.159E+00  0.159E+00  0.290E+00  0.758E-01
  10.499  0.106E+01  0.805E-01  0.299E+00  0.149E+00  0.149E+00  0.299E+00  0.805E-01
  10.501  0.522E+00  0.476E-01  0.143E+00  0.705E-01  0.705E-01  0.143E+00  0.476E-01
  10.503  0.747E+00  0.657E-01  0.197E+00  0.111E+00  0.111E+00  0.197E+00  0.657E-01
  10.505  0.114E+01  0.100E+00  0.284E+00  0.185E+00  0.185E+00  0.284E+00  0.100E+00
  10.507  0.116E+01  0.109E+00  0.300E+00  0.171E+00  0.171E+00  0.300E+00  0.109E+00
  10.509  0.521E+00  0.592E-01  0.130E+00  0.710E-01  0.710E-01  0.130E+00  0.592E-01
  10.511  0.114E+01  0.163E+00  0.232E+00  0.177E+00  0.177E+00  0.232E+00  0.163E+00
  10.513  0.123E+01  0.148E+00  0.254E+00  0.214E+00  0.214E+00  0.254E+00  0.148E+00
  10.515  0.561E+00  0.460E-01  0.122E+00  0.112E+00  0.112E+00  0.122E+00  0.460E-01
  10.517  0.645E+00  0.778E-01  0.148E+00  0.969E-01  0.969E-01  0.148E+00  0.778E-01
  10.519  0.997E+00  0.169E+00  0.179E+00  0.151E+00  0.151E+00  0.179E+00  0.169E+00
  10.521  0.477E+00  0.929E-01  0.675E-01  0.780E-01  0.780E-01  0.675E-01  0.929E-01
  10.523  0.566E-01  0.923E-02  0.936E-02  0.970E-02  0.970E-02  0.936E-02  0.923E-02
  10.525  0.258E+00  0.195E-01  0.661E-01  0.435E-01  0.435E-01  0.661E-01  0.195E-01
  10.527  0.523E+00  0.441E-01  0.135E+00  0.819E-01  0.819E-01  0.135E+00  0.441E-01
  10.529  0.612E+00  0.692E-01  0.159E+00  0.778E-01  0.778E-01  0.159E+00  0.692E-01
  10.531  0.111E+01  0.112E+00  0.266E+00  0.179E+00  0.179E+00  0.266E+00  0.112E+00
  10.533  0.122E+01  0.970E-01  0.306E+00  0.207E+00  0.207E+00  0.306E+00  0.970E-01
  10.535  0.788E+00  0.535E-01  0.207E+00  0.133E+00  0.133E+00  0.207E+00  0.535E-01
  10.537  0.746E+00  0.664E-01  0.196E+00  0.111E+00  0.111E+00  0.196E+00  0.664E-01
  10.539  0.523E+00  0.606E-01  0.135E+00  0.661E-01  0.661E-01  0.135E+00  0.606E-01
  10.541  0.450E+00  0.722E-01  0.926E-01  0.602E-01  0.602E-01  0.926E-01  0.722E-01
  10.543  0.355E+00  0.729E-01  0.514E-01  0.533E-01  0.533E-01  0.514E-01  0.729E-01
  10.545  0.742E+00  0.182E+00  0.629E-01  0.126E+00  0.126E+00  0.629E-01  0.182E+00
  10.547  0.593E+00  0.143E+00  0.583E-01  0.950E-01  0.950E-01  0.583E-01  0.143E+00
  10.549  0.790E+00  0.134E+00  0.164E+00  0.968E-01  0.968E-01  0.164E+00  0.134E+00
  10.551  0.102E+01  0.105E+00  0.265E+00  0.138E+00  0.138E+00  0.265E+00  0.105E+00
  10.553  0.801E+00  0.712E-01  0.191E+00  0.138E+00  0.138E+00  0.191E+00  0.712E-01
  10.555  0.101E+01  0.115E+00  0.226E+00  0.166E+00  0.166E+00  0.226E+00  0.115E+00
  10.557  0.844E+00  0.117E+00  0.172E+00  0.133E+00  0.133E+00  0.172E+00  0.117E+00
  10.559  0.617E+00  0.998E-01  0.111E+00  0.978E-01  0.978E-01  0.111E+00  0.998E-01
  10.561  0.586E+00  0.626E-01  0.130E+00  0.101E+00  0.101E+00  0.130E+00  0.626E-01
  10.563  0.868E+00  0.794E-01  0.211E+00  0.144E+00  0.144E+00  0.211E+00  0.794E-01
  10.565  0.922E+00  0.985E-01  0.207E+00  0.155E+00  0.155E+00  0.207E+00  0.985E-01
  10.567  0.684E+00  0.104E+00  0.119E+00  0.118E+00  0.118E+00  0.119E+00  0.104E+00
  10.569  0.779E+00  0.810E-01  0.188E+00  0.121E+00  0.121E+00  0.188E+00  0.810E-01
  10.571  0.146E+01  0.134E+00  0.378E+00  0.216E+00  0.216E+00  0.378E+00  0.134E+00
  10.573  0.116E+01  0.107E+00  0.315E+00  0.157E+00  0.157E+00  0.315E+00  0.107E+00
  10.575  0.114E+01  0.107E+00  0.308E+00  0.155E+00  0.155E+00  0.308E+00  0.107E+00
  10.577  0.544E+00  0.676E-01  0.132E+00  0.722E-01  0.722E-01  0.132E+00  0.676E-01
  10.579  0.671E+00  0.100E+00  0.153E+00  0.824E-01  0.824E-01  0.153E+00  0.100E+00
  10.581  0.431E+00  0.577E-01  0.104E+00  0.539E-01  0.539E-01  0.104E+00  0.577E-01
  10.583  0.492E+00  0.550E-01  0.127E+00  0.641E-01  0.641E-01  0.127E+00  0.550E-01
  10.585  0.175E+00  0.194E-01  0.452E-01  0.228E-01  0.228E-01  0.452E-01  0.194E-01
  10.587  0.864E-02  0.957E-03  0.224E-02  0.113E-02  0.113E-02  0.224E-02  0.957E-03
  10.589  0.236E-02  0.245E-03  0.599E-03  0.337E-03  0.337E-03  0.599E-03  0.245E-03
  10.591  0.111E+00  0.115E-01  0.280E-01  0.161E-01  0.161E-01  0.280E-01  0.115E-01
  10.593  0.813E+00  0.839E-01  0.205E+00  0.118E+00  0.118E+00  0.205E+00  0.839E-01
  10.595  0.119E+01  0.119E+00  0.303E+00  0.172E+00  0.172E+00  0.303E+00  0.119E+00
  10.597  0.810E+00  0.628E-01  0.203E+00  0.139E+00  0.139E+00  0.203E+00  0.628E-01
  10.599  0.582E+00  0.427E-01  0.143E+00  0.105E+00  0.105E+00  0.143E+00  0.427E-01
  10.601  0.707E+00  0.620E-01  0.174E+00  0.118E+00  0.118E+00  0.174E+00  0.620E-01
  10.603  0.640E+00  0.698E-01  0.141E+00  0.109E+00  0.109E+00  0.141E+00  0.698E-01
  10.605  0.132E+01  0.189E+00  0.272E+00  0.197E+00  0.197E+00  0.272E+00  0.189E+00
  10.607  0.231E+01  0.262E+00  0.566E+00  0.327E+00  0.327E+00  0.566E+00  0.262E+00
  10.609  0.234E+01  0.227E+00  0.612E+00  0.331E+00  0.331E+00  0.612E+00  0.227E+00
  10.611  0.135E+01  0.151E+00  0.319E+00  0.207E+00  0.207E+00  0.319E+00  0.151E+00
  10.613  0.593E+00  0.895E-01  0.952E-01  0.112E+00  0.112E+00  0.952E-01  0.895E-01
  10.615  0.949E+00  0.133E+00  0.204E+00  0.137E+00  0.137E+00  0.204E+00  0.133E+00
  10.617  0.124E+01  0.195E+00  0.243E+00  0.180E+00  0.180E+00  0.243E+00  0.195E+00
  10.619  0.652E+00  0.970E-01  0.132E+00  0.973E-01  0.973E-01  0.132E+00  0.970E-01
  10.621  0.821E+00  0.684E-01  0.217E+00  0.125E+00  0.125E+00  0.217E+00  0.684E-01
  10.623  0.539E+00  0.611E-01  0.130E+00  0.780E-01  0.780E-01  0.130E+00  0.611E-01
  10.625  0.106E+01  0.151E+00  0.250E+00  0.130E+00  0.130E+00  0.250E+00  0.151E+00
  10.627  0.136E+01  0.150E+00  0.372E+00  0.158E+00  0.158E+00  0.372E+00  0.150E+00
  10.629  0.115E+01  0.151E+00  0.286E+00  0.138E+00  0.138E+00  0.286E+00  0.151E+00
  10.631  0.131E+01  0.218E+00  0.258E+00  0.177E+00  0.177E+00  0.258E+00  0.218E+00
  10.633  0.831E+00  0.135E+00  0.161E+00  0.119E+00  0.119E+00  0.161E+00  0.135E+00
  10.635  0.218E+00  0.316E-01  0.436E-01  0.337E-01  0.337E-01  0.436E-01  0.316E-01
  10.637  0.236E+00  0.207E-01  0.586E-01  0.387E-01  0.387E-01  0.586E-01  0.207E-01
  10.639  0.789E+00  0.758E-01  0.207E+00  0.111E+00  0.111E+00  0.207E+00  0.758E-01
  10.641  0.111E+01  0.114E+00  0.298E+00  0.141E+00  0.141E+00  0.298E+00  0.114E+00
  10.643  0.835E+00  0.884E-01  0.225E+00  0.104E+00  0.104E+00  0.225E+00  0.884E-01
  10.645  0.929E+00  0.895E-01  0.250E+00  0.125E+00  0.125E+00  0.250E+00  0.895E-01
  10.647  0.938E+00  0.738E-01  0.251E+00  0.144E+00  0.144E+00  0.251E+00  0.738E-01
  10.649  0.777E+00  0.639E-01  0.198E+00  0.127E+00  0.127E+00  0.198E+00  0.639E-01
  10.651  0.964E+00  0.100E+00  0.216E+00  0.166E+00  0.166E+00  0.216E+00  0.100E+00
  10.653  0.153E+01  0.233E+00  0.259E+00  0.275E+00  0.275E+00  0.259E+00  0.233E+00
  10.655  0.113E+01  0.167E+00  0.203E+00  0.196E+00  0.196E+00  0.203E+00  0.167E+00
  10.657  0.647E+00  0.708E-01  0.166E+00  0.869E-01  0.869E-01  0.166E+00  0.708E-01
  10.659  0.791E+00  0.823E-01  0.214E+00  0.998E-01  0.998E-01  0.214E+00  0.823E-01
  10.661  0.378E+00  0.471E-01  0.896E-01  0.523E-01  0.523E-01  0.896E-01  0.471E-01
  10.663  0.291E+00  0.479E-01  0.503E-01  0.475E-01  0.475E-01  0.503E-01  0.479E-01
  10.665  0.848E-01  0.142E-01  0.142E-01  0.140E-01  0.140E-01  0.142E-01  0.142E-01
  10.667  0.308E-01  0.319E-02  0.670E-02  0.551E-02  0.551E-02  0.670E-02  0.319E-02
  10.669  0.269E+00  0.239E-01  0.625E-01  0.480E-01  0.480E-01  0.625E-01  0.239E-01
  10.671  0.587E+00  0.326E-01  0.162E+00  0.995E-01  0.995E-01  0.162E+00  0.326E-01
  10.673  0.511E+00  0.110E-01  0.163E+00  0.816E-01  0.816E-01  0.163E+00  0.110E-01
  10.675  0.120E+00  0.389E-02  0.383E-01  0.180E-01  0.180E-01  0.383E-01  0.389E-02
  10.677  0.401E+00  0.503E-01  0.995E-01  0.509E-01  0.509E-01  0.995E-01  0.503E-01
  10.679  0.163E+01  0.219E+00  0.351E+00  0.245E+00  0.245E+00  0.351E+00  0.219E+00
  10.681  0.167E+01  0.256E+00  0.310E+00  0.267E+00  0.267E+00  0.310E+00  0.256E+00
  10.683  0.442E+00  0.728E-01  0.793E-01  0.690E-01  0.690E-01  0.793E-01  0.728E-01
  10.685  0.222E-01  0.362E-02  0.414E-02  0.334E-02  0.334E-02  0.414E-02  0.362E-02
  10.687  0.185E-02  0.207E-03  0.488E-03  0.230E-03  0.230E-03  0.488E-03  0.207E-03
  10.689  0.886E-01  0.955E-02  0.239E-01  0.109E-01  0.109E-01  0.239E-01  0.955E-02
  10.691  0.673E+00  0.736E-01  0.178E+00  0.847E-01  0.847E-01  0.178E+00  0.736E-01
  10.693  0.109E+01  0.121E+00  0.266E+00  0.156E+00  0.156E+00  0.266E+00  0.121E+00
  10.695  0.808E+00  0.889E-01  0.181E+00  0.134E+00  0.134E+00  0.181E+00  0.889E-01
  10.697  0.744E+00  0.119E+00  0.123E+00  0.130E+00  0.130E+00  0.123E+00  0.119E+00
  10.699  0.117E+01  0.159E+00  0.223E+00  0.203E+00  0.203E+00  0.223E+00  0.159E+00
  10.701  0.120E+01  0.192E+00  0.214E+00  0.192E+00  0.192E+00  0.214E+00  0.192E+00
  10.703  0.259E+01  0.468E+00  0.427E+00  0.398E+00  0.398E+00  0.427E+00  0.468E+00
  10.705  0.287E+01  0.526E+00  0.462E+00  0.447E+00  0.447E+00  0.462E+00  0.526E+00
  10.707  0.149E+01  0.268E+00  0.233E+00  0.244E+00  0.244E+00  0.233E+00  0.268E+00
  10.709  0.451E+00  0.577E-01  0.726E-01  0.954E-01  0.954E-01  0.726E-01  0.577E-01
  10.711  0.731E+00  0.159E+00  0.639E-01  0.143E+00  0.143E+00  0.639E-01  0.159E+00
  10.713  0.111E+01  0.233E+00  0.118E+00  0.206E+00  0.206E+00  0.118E+00  0.233E+00
  10.715  0.503E+00  0.113E+00  0.596E-01  0.791E-01  0.791E-01  0.596E-01  0.113E+00
  10.717  0.524E+00  0.129E+00  0.761E-01  0.571E-01  0.571E-01  0.761E-01  0.129E+00
  10.719  0.375E+00  0.664E-01  0.822E-01  0.386E-01  0.386E-01  0.822E-01  0.664E-01
  10.721  0.574E+00  0.125E+00  0.607E-01  0.102E+00  0.102E+00  0.607E-01  0.125E+00
  10.723  0.104E+01  0.222E+00  0.108E+00  0.191E+00  0.191E+00  0.108E+00  0.222E+00
  10.725  0.746E+00  0.112E+00  0.138E+00  0.122E+00  0.122E+00  0.138E+00  0.112E+00
  10.727  0.112E+01  0.968E-01  0.309E+00  0.152E+00  0.152E+00  0.309E+00  0.968E-01
  10.729  0.746E+00  0.742E-01  0.201E+00  0.975E-01  0.975E-01  0.201E+00  0.742E-01
  10.731  0.557E+00  0.588E-01  0.138E+00  0.819E-01  0.819E-01  0.138E+00  0.588E-01
  10.733  0.835E+00  0.941E-01  0.206E+00  0.117E+00  0.117E+00  0.206E+00  0.941E-01
  10.735  0.117E+01  0.182E+00  0.230E+00  0.175E+00  0.175E+00  0.230E+00  0.182E+00
  10.737  0.901E+00  0.178E+00  0.120E+00  0.152E+00  0.152E+00  0.120E+00  0.178E+00
  10.739  0.874E+00  0.140E+00  0.142E+00  0.155E+00  0.155E+00  0.142E+00  0.140E+00
  10.741  0.568E+00  0.594E-01  0.134E+00  0.903E-01  0.903E-01  0.134E+00  0.594E-01
  10.743  0.505E+00  0.505E-01  0.137E+00  0.651E-01  0.651E-01  0.137E+00  0.505E-01
  10.745  0.286E+00  0.364E-01  0.606E-01  0.462E-01  0.462E-01  0.606E-01  0.364E-01
  10.747  0.496E+00  0.829E-01  0.634E-01  0.102E+00  0.102E+00  0.634E-01  0.829E-01
  10.749  0.693E+00  0.120E+00  0.106E+00  0.121E+00  0.121E+00  0.106E+00  0.120E+00
  10.751  0.699E+00  0.130E+00  0.997E-01  0.120E+00  0.120E+00  0.997E-01  0.130E+00
  10.753  0.107E+01  0.153E+00  0.189E+00  0.191E+00  0.191E+00  0.189E+00  0.153E+00
  10.755  0.986E+00  0.105E+00  0.218E+00  0.170E+00  0.170E+00  0.218E+00  0.105E+00
  10.757  0.966E+00  0.162E+00  0.163E+00  0.157E+00  0.157E+00  0.163E+00  0.162E+00
  10.759  0.936E+00  0.144E+00  0.167E+00  0.157E+00  0.157E+00  0.167E+00  0.144E+00
  10.761  0.375E+00  0.510E-01  0.720E-01  0.647E-01  0.647E-01  0.720E-01  0.510E-01
  10.763  0.101E+00  0.109E-01  0.246E-01  0.149E-01  0.149E-01  0.246E-01  0.109E-01
  10.765  0.729E+00  0.669E-01  0.191E+00  0.106E+00  0.106E+00  0.191E+00  0.669E-01
  10.767  0.140E+01  0.125E+00  0.355E+00  0.217E+00  0.217E+00  0.355E+00  0.125E+00
  10.769  0.697E+00  0.695E-01  0.171E+00  0.108E+00  0.108E+00  0.171E+00  0.695E-01
  10.771  0.382E+00  0.787E-01  0.444E-01  0.678E-01  0.678E-01  0.444E-01  0.787E-01
  10.773  0.474E+00  0.107E+00  0.479E-01  0.820E-01  0.820E-01  0.479E-01  0.107E+00
  10.775  0.388E+00  0.577E-01  0.961E-01  0.399E-01  0.399E-01  0.961E-01  0.577E-01
  10.777  0.178E+00  0.250E-01  0.474E-01  0.167E-01  0.167E-01  0.474E-01  0.250E-01
  10.779  0.267E+00  0.665E-01  0.197E-01  0.472E-01  0.472E-01  0.197E-01  0.665E-01
  10.781  0.671E+00  0.154E+00  0.740E-01  0.108E+00  0.108E+00  0.740E-01  0.154E+00
  10.783  0.110E+01  0.120E+00  0.285E+00  0.146E+00  0.146E+00  0.285E+00  0.120E+00
  10.785  0.120E+01  0.684E-01  0.356E+00  0.177E+00  0.177E+00  0.356E+00  0.684E-01
  10.787  0.377E+00  0.235E-01  0.105E+00  0.598E-01  0.598E-01  0.105E+00  0.235E-01
  10.789  0.231E+00  0.257E-01  0.656E-01  0.243E-01  0.243E-01  0.656E-01  0.257E-01
  10.791  0.609E+00  0.852E-01  0.147E+00  0.726E-01  0.726E-01  0.147E+00  0.852E-01
  10.793  0.875E+00  0.156E+00  0.147E+00  0.135E+00  0.135E+00  0.147E+00  0.156E+00
  10.795  0.142E+01  0.243E+00  0.238E+00  0.227E+00  0.227E+00  0.238E+00  0.243E+00
  10.797  0.101E+01  0.161E+00  0.190E+00  0.154E+00  0.154E+00  0.190E+00  0.161E+00
  10.799  0.627E+00  0.115E+00  0.116E+00  0.823E-01  0.823E-01  0.116E+00  0.115E+00
  10.801  0.120E+01  0.187E+00  0.262E+00  0.150E+00  0.150E+00  0.262E+00  0.187E+00
  10.803  0.535E+00  0.664E-01  0.133E+00  0.683E-01  0.683E-01  0.133E+00  0.664E-01
  10.805  0.390E+00  0.465E-01  0.884E-01  0.599E-01  0.599E-01  0.884E-01  0.465E-01
  10.807  0.105E+01  0.155E+00  0.192E+00  0.177E+00  0.177E+00  0.192E+00  0.155E+00
  10.809  0.109E+01  0.133E+00  0.219E+00  0.193E+00  0.193E+00  0.219E+00  0.133E+00
  10.811  0.691E+00  0.517E-01  0.167E+00  0.127E+00  0.127E+00  0.167E+00  0.517E-01
  10.813  0.465E+00  0.574E-01  0.852E-01  0.900E-01  0.900E-01  0.852E-01  0.574E-01
  10.815  0.764E+00  0.111E+00  0.132E+00  0.139E+00  0.139E+00  0.132E+00  0.111E+00
  10.817  0.593E+00  0.750E-01  0.122E+00  0.996E-01  0.996E-01  0.122E+00  0.750E-01
  10.819  0.574E+00  0.106E+00  0.851E-01  0.955E-01  0.955E-01  0.851E-01  0.106E+00
  10.821  0.659E+00  0.121E+00  0.115E+00  0.931E-01  0.931E-01  0.115E+00  0.121E+00
  10.823  0.197E+00  0.293E-01  0.461E-01  0.230E-01  0.230E-01  0.461E-01  0.293E-01
  10.825  0.282E+00  0.271E-01  0.690E-01  0.450E-01  0.450E-01  0.690E-01  0.271E-01
  10.827  0.536E+00  0.486E-01  0.118E+00  0.102E+00  0.102E+00  0.118E+00  0.486E-01
  10.829  0.624E+00  0.650E-01  0.134E+00  0.112E+00  0.112E+00  0.134E+00  0.650E-01
  10.831  0.559E+00  0.502E-01  0.135E+00  0.947E-01  0.947E-01  0.135E+00  0.502E-01
  10.833  0.114E+00  0.945E-02  0.288E-01  0.189E-01  0.189E-01  0.288E-01  0.945E-02
  10.835  0.204E+00  0.252E-01  0.499E-01  0.270E-01  0.270E-01  0.499E-01  0.252E-01
  10.837  0.765E+00  0.120E+00  0.151E+00  0.111E+00  0.111E+00  0.151E+00  0.120E+00
  10.839  0.960E+00  0.159E+00  0.175E+00  0.147E+00  0.147E+00  0.175E+00  0.159E+00
  10.841  0.133E+01  0.163E+00  0.310E+00  0.192E+00  0.192E+00  0.310E+00  0.163E+00
  10.843  0.108E+01  0.855E-01  0.297E+00  0.157E+00  0.157E+00  0.297E+00  0.855E-01
  10.845  0.424E+00  0.271E-01  0.119E+00  0.659E-01  0.659E-01  0.119E+00  0.271E-01
  10.847  0.473E+00  0.972E-01  0.520E-01  0.872E-01  0.872E-01  0.520E-01  0.972E-01
  10.849  0.678E+00  0.104E+00  0.130E+00  0.106E+00  0.106E+00  0.130E+00  0.104E+00
  10.851  0.432E+00  0.435E-01  0.113E+00  0.594E-01  0.594E-01  0.113E+00  0.435E-01
  10.853  0.264E+00  0.218E-01  0.703E-01  0.398E-01  0.398E-01  0.703E-01  0.218E-01
  10.855  0.104E+00  0.835E-02  0.278E-01  0.157E-01  0.157E-01  0.278E-01  0.835E-02
  10.857  0.263E+00  0.213E-01  0.724E-01  0.377E-01  0.377E-01  0.724E-01  0.213E-01
  10.859  0.603E+00  0.532E-01  0.156E+00  0.921E-01  0.921E-01  0.156E+00  0.532E-01
  10.861  0.688E+00  0.848E-01  0.164E+00  0.945E-01  0.945E-01  0.164E+00  0.848E-01
  10.863  0.109E+01  0.164E+00  0.262E+00  0.120E+00  0.120E+00  0.262E+00  0.164E+00
  10.865  0.108E+01  0.129E+00  0.281E+00  0.131E+00  0.131E+00  0.281E+00  0.129E+00
  10.867  0.503E+00  0.375E-01  0.131E+00  0.831E-01  0.831E-01  0.131E+00  0.375E-01
  10.869  0.238E+00  0.131E-01  0.577E-01  0.481E-01  0.481E-01  0.577E-01  0.131E-01
  10.871  0.342E+00  0.625E-01  0.476E-01  0.610E-01  0.610E-01  0.476E-01  0.625E-01
  10.873  0.111E+01  0.163E+00  0.209E+00  0.181E+00  0.181E+00  0.209E+00  0.163E+00
  10.875  0.955E+00  0.114E+00  0.219E+00  0.144E+00  0.144E+00  0.219E+00  0.114E+00
  10.877  0.525E+00  0.103E+00  0.642E-01  0.949E-01  0.949E-01  0.642E-01  0.103E+00
  10.879  0.557E+00  0.117E+00  0.554E-01  0.106E+00  0.106E+00  0.554E-01  0.117E+00
  10.881  0.121E+01  0.221E+00  0.188E+00  0.196E+00  0.196E+00  0.188E+00  0.221E+00
  10.883  0.153E+01  0.255E+00  0.281E+00  0.230E+00  0.230E+00  0.281E+00  0.255E+00
  10.885  0.704E+00  0.113E+00  0.128E+00  0.111E+00  0.111E+00  0.128E+00  0.113E+00
  10.887  0.205E+00  0.143E-01  0.348E-01  0.535E-01  0.535E-01  0.348E-01  0.143E-01
  10.889  0.150E+00  0.480E-02  0.260E-01  0.444E-01  0.444E-01  0.260E-01  0.480E-02
  10.891  0.151E+00  0.113E-01  0.391E-01  0.250E-01  0.250E-01  0.391E-01  0.113E-01
  10.893  0.211E+00  0.171E-01  0.574E-01  0.308E-01  0.308E-01  0.574E-01  0.171E-01
  10.895  0.663E-01  0.613E-02  0.178E-01  0.919E-02  0.919E-02  0.178E-01  0.613E-02
  10.897  0.239E+00  0.291E-01  0.597E-01  0.308E-01  0.308E-01  0.597E-01  0.291E-01
  10.899  0.460E+00  0.612E-01  0.105E+00  0.640E-01  0.640E-01  0.105E+00  0.612E-01
  10.901  0.505E+00  0.629E-01  0.125E+00  0.648E-01  0.648E-01  0.125E+00  0.629E-01
  10.903  0.115E+01  0.947E-01  0.333E+00  0.146E+00  0.146E+00  0.333E+00  0.947E-01
  10.905  0.129E+01  0.934E-01  0.371E+00  0.182E+00  0.182E+00  0.371E+00  0.934E-01
  10.907  0.580E+00  0.575E-01  0.145E+00  0.872E-01  0.872E-01  0.145E+00  0.575E-01
  10.909  0.963E+00  0.166E+00  0.154E+00  0.162E+00  0.162E+00  0.154E+00  0.166E+00
  10.911  0.119E+01  0.218E+00  0.176E+00  0.203E+00  0.203E+00  0.176E+00  0.218E+00
  10.913  0.119E+01  0.134E+00  0.280E+00  0.183E+00  0.183E+00  0.280E+00  0.134E+00
  10.915  0.985E+00  0.978E-01  0.236E+00  0.159E+00  0.159E+00  0.236E+00  0.978E-01
  10.917  0.392E+00  0.406E-01  0.968E-01  0.584E-01  0.584E-01  0.968E-01  0.406E-01
  10.919  0.295E+00  0.306E-01  0.780E-01  0.389E-01  0.389E-01  0.780E-01  0.306E-01
  10.921  0.604E+00  0.723E-01  0.140E+00  0.898E-01  0.898E-01  0.140E+00  0.723E-01
  10.923  0.869E+00  0.102E+00  0.193E+00  0.140E+00  0.140E+00  0.193E+00  0.102E+00
  10.925  0.657E+00  0.512E-01  0.168E+00  0.110E+00  0.110E+00  0.168E+00  0.512E-01
  10.927  0.776E+00  0.622E-01  0.215E+00  0.111E+00  0.111E+00  0.215E+00  0.622E-01
  10.929  0.270E+00  0.231E-01  0.758E-01  0.364E-01  0.364E-01  0.758E-01  0.231E-01
  10.931  0.107E+00  0.144E-01  0.288E-01  0.105E-01  0.105E-01  0.288E-01  0.144E-01
  10.933  0.464E+00  0.637E-01  0.119E+00  0.495E-01  0.495E-01  0.119E+00  0.637E-01
  10.935  0.564E+00  0.677E-01  0.150E+00  0.646E-01  0.646E-01  0.150E+00  0.677E-01
  10.937  0.305E+00  0.331E-01  0.899E-01  0.294E-01  0.294E-01  0.899E-01  0.331E-01
  10.939  0.445E-01  0.487E-02  0.135E-01  0.387E-02  0.387E-02  0.135E-01  0.487E-02
  10.941  0.166E-01  0.383E-02  0.148E-02  0.300E-02  0.300E-02  0.148E-02  0.383E-02
  10.943  0.321E+00  0.730E-01  0.266E-01  0.610E-01  0.610E-01  0.266E-01  0.730E-01
  10.945  0.104E+01  0.211E+00  0.114E+00  0.195E+00  0.195E+00  0.114E+00  0.211E+00
  10.947  0.980E+00  0.123E+00  0.206E+00  0.161E+00  0.161E+00  0.206E+00  0.123E+00
  10.949  0.109E+01  0.971E-01  0.254E+00  0.191E+00  0.191E+00  0.254E+00  0.971E-01
  10.951  0.111E+01  0.161E+00  0.212E+00  0.183E+00  0.183E+00  0.212E+00  0.161E+00
  10.953  0.647E+00  0.999E-01  0.127E+00  0.965E-01  0.965E-01  0.127E+00  0.999E-01
  10.955  0.687E+00  0.888E-01  0.151E+00  0.104E+00  0.104E+00  0.151E+00  0.888E-01
  10.957  0.950E+00  0.131E+00  0.210E+00  0.135E+00  0.135E+00  0.210E+00  0.131E+00
  10.959  0.883E+00  0.145E+00  0.180E+00  0.117E+00  0.117E+00  0.180E+00  0.145E+00
  10.961  0.738E+00  0.856E-01  0.191E+00  0.923E-01  0.923E-01  0.191E+00  0.856E-01
  10.963  0.751E+00  0.546E-01  0.232E+00  0.888E-01  0.888E-01  0.232E+00  0.546E-01
  10.965  0.623E+00  0.183E-01  0.209E+00  0.840E-01  0.840E-01  0.209E+00  0.183E-01
  10.967  0.276E+00  0.203E-01  0.740E-01  0.438E-01  0.438E-01  0.740E-01  0.203E-01
  10.969  0.156E+00  0.210E-01  0.292E-01  0.279E-01  0.279E-01  0.292E-01  0.210E-01
  10.971  0.419E+00  0.418E-01  0.993E-01  0.683E-01  0.683E-01  0.993E-01  0.418E-01
  10.973  0.929E+00  0.929E-01  0.241E+00  0.131E+00  0.131E+00  0.241E+00  0.929E-01
  10.975  0.881E+00  0.107E+00  0.213E+00  0.121E+00  0.121E+00  0.213E+00  0.107E+00
  10.977  0.111E+01  0.134E+00  0.255E+00  0.166E+00  0.166E+00  0.255E+00  0.134E+00
  10.979  0.996E+00  0.102E+00  0.240E+00  0.156E+00  0.156E+00  0.240E+00  0.102E+00
  10.981  0.125E+01  0.162E+00  0.255E+00  0.206E+00  0.206E+00  0.255E+00  0.162E+00
  10.983  0.114E+01  0.158E+00  0.219E+00  0.196E+00  0.196E+00  0.219E+00  0.158E+00
  10.985  0.203E+00  0.276E-01  0.398E-01  0.342E-01  0.342E-01  0.398E-01  0.276E-01
  10.987  0.200E+00  0.204E-01  0.570E-01  0.226E-01  0.226E-01  0.570E-01  0.204E-01
  10.989  0.935E+00  0.103E+00  0.257E+00  0.108E+00  0.108E+00  0.257E+00  0.103E+00
  10.991  0.840E+00  0.991E-01  0.221E+00  0.996E-01  0.996E-01  0.221E+00  0.991E-01
  10.993  0.245E+00  0.407E-01  0.456E-01  0.360E-01  0.360E-01  0.456E-01  0.407E-01
  10.995  0.758E+00  0.132E+00  0.121E+00  0.127E+00  0.127E+00  0.121E+00  0.132E+00
  10.997  0.110E+01  0.141E+00  0.232E+00  0.179E+00  0.179E+00  0.232E+00  0.141E+00
  10.999  0.900E+00  0.977E-01  0.203E+00  0.149E+00  0.149E+00  0.203E+00  0.977E-01
  11.001  0.855E+00  0.105E+00  0.187E+00  0.135E+00  0.135E+00  0.187E+00  0.105E+00
  11.003  0.811E+00  0.100E+00  0.209E+00  0.970E-01  0.970E-01  0.209E+00  0.100E+00
  11.005  0.608E+00  0.695E-01  0.158E+00  0.763E-01  0.763E-01  0.158E+00  0.695E-01
  11.007  0.575E+00  0.729E-01  0.100E+00  0.114E+00  0.114E+00  0.100E+00  0.729E-01
  11.009  0.112E+01  0.114E+00  0.227E+00  0.219E+00  0.219E+00  0.227E+00  0.114E+00
  11.011  0.100E+01  0.998E-01  0.219E+00  0.182E+00  0.182E+00  0.219E+00  0.998E-01
  11.013  0.175E+00  0.184E-01  0.390E-01  0.302E-01  0.302E-01  0.390E-01  0.184E-01
  11.015  0.202E-01  0.182E-02  0.542E-02  0.285E-02  0.285E-02  0.542E-02  0.182E-02
  11.017  0.232E+00  0.203E-01  0.642E-01  0.313E-01  0.313E-01  0.642E-01  0.203E-01
  11.019  0.600E+00  0.705E-01  0.140E+00  0.897E-01  0.897E-01  0.140E+00  0.705E-01
  11.021  0.662E+00  0.113E+00  0.103E+00  0.116E+00  0.116E+00  0.103E+00  0.113E+00
  11.023  0.735E+00  0.801E-01  0.179E+00  0.108E+00  0.108E+00  0.179E+00  0.801E-01
  11.025  0.107E+01  0.865E-01  0.302E+00  0.144E+00  0.144E+00  0.302E+00  0.865E-01
  11.027  0.873E+00  0.883E-01  0.231E+00  0.117E+00  0.117E+00  0.231E+00  0.883E-01
  11.029  0.441E+00  0.646E-01  0.893E-01  0.665E-01  0.665E-01  0.893E-01  0.646E-01
  11.031  0.105E+01  0.155E+00  0.219E+00  0.150E+00  0.150E+00  0.219E+00  0.155E+00
  11.033  0.719E+00  0.857E-01  0.181E+00  0.930E-01  0.930E-01  0.181E+00  0.857E-01
  11.035  0.357E+00  0.316E-01  0.916E-01  0.552E-01  0.552E-01  0.916E-01  0.316E-01
  11.037  0.311E+00  0.166E-01  0.791E-01  0.596E-01  0.596E-01  0.791E-01  0.166E-01
  11.039  0.207E+00  0.140E-01  0.483E-01  0.411E-01  0.411E-01  0.483E-01  0.140E-01
  11.041  0.303E+00  0.665E-01  0.306E-01  0.546E-01  0.546E-01  0.306E-01  0.665E-01
  11.043  0.429E+00  0.928E-01  0.474E-01  0.744E-01  0.744E-01  0.474E-01  0.928E-01
  11.045  0.366E+00  0.428E-01  0.914E-01  0.488E-01  0.488E-01  0.914E-01  0.428E-01
  11.047  0.278E+00  0.253E-01  0.797E-01  0.342E-01  0.342E-01  0.797E-01  0.253E-01
  11.049  0.937E-01  0.974E-02  0.257E-01  0.114E-01  0.114E-01  0.257E-01  0.974E-02
  11.051  0.274E+00  0.308E-01  0.733E-01  0.331E-01  0.331E-01  0.733E-01  0.308E-01
  11.053  0.175E+00  0.196E-01  0.470E-01  0.211E-01  0.211E-01  0.470E-01  0.196E-01
  11.055  0.765E-01  0.703E-02  0.223E-01  0.893E-02  0.893E-02  0.223E-01  0.703E-02
  11.057  0.201E+00  0.204E-01  0.518E-01  0.283E-01  0.283E-01  0.518E-01  0.204E-01
  11.059  0.395E+00  0.459E-01  0.965E-01  0.552E-01  0.552E-01  0.965E-01  0.459E-01
  11.061  0.712E+00  0.111E+00  0.135E+00  0.111E+00  0.111E+00  0.135E+00  0.111E+00
  11.063  0.666E+00  0.125E+00  0.806E-01  0.127E+00  0.127E+00  0.806E-01  0.125E+00
  11.065  0.432E+00  0.677E-01  0.569E-01  0.914E-01  0.914E-01  0.569E-01  0.677E-01
  11.067  0.203E+00  0.240E-01  0.294E-01  0.483E-01  0.483E-01  0.294E-01  0.240E-01
  11.069  0.486E+00  0.649E-01  0.731E-01  0.105E+00  0.105E+00  0.731E-01  0.649E-01
  11.071  0.540E+00  0.879E-01  0.103E+00  0.789E-01  0.789E-01  0.103E+00  0.879E-01
  11.073  0.569E+00  0.743E-01  0.152E+00  0.581E-01  0.581E-01  0.152E+00  0.743E-01
  11.075  0.919E+00  0.837E-01  0.258E+00  0.118E+00  0.118E+00  0.258E+00  0.837E-01
  11.077  0.985E+00  0.984E-01  0.263E+00  0.131E+00  0.131E+00  0.263E+00  0.984E-01
  11.079  0.571E+00  0.691E-01  0.137E+00  0.795E-01  0.795E-01  0.137E+00  0.691E-01
  11.081  0.449E+00  0.463E-01  0.115E+00  0.636E-01  0.636E-01  0.115E+00  0.463E-01
  11.083  0.414E+00  0.327E-01  0.116E+00  0.577E-01  0.577E-01  0.116E+00  0.327E-01
  11.085  0.491E+00  0.754E-02  0.171E+00  0.674E-01  0.674E-01  0.171E+00  0.754E-02
  11.087  0.408E+00  0.111E-01  0.136E+00  0.574E-01  0.574E-01  0.136E+00  0.111E-01
  11.089  0.814E+00  0.844E-01  0.198E+00  0.124E+00  0.124E+00  0.198E+00  0.844E-01
  11.091  0.159E+01  0.196E+00  0.343E+00  0.257E+00  0.257E+00  0.343E+00  0.196E+00
  11.093  0.102E+01  0.124E+00  0.207E+00  0.178E+00  0.178E+00  0.207E+00  0.124E+00
  11.095  0.204E+00  0.275E-01  0.392E-01  0.352E-01  0.352E-01  0.392E-01  0.275E-01
  11.097  0.307E+00  0.725E-01  0.375E-01  0.433E-01  0.433E-01  0.375E-01  0.725E-01
  11.099  0.257E+00  0.602E-01  0.309E-01  0.373E-01  0.373E-01  0.309E-01  0.602E-01
  11.101  0.736E-01  0.118E-01  0.773E-02  0.173E-01  0.173E-01  0.773E-02  0.118E-01
  11.103  0.169E+00  0.350E-01  0.137E-01  0.359E-01  0.359E-01  0.137E-01  0.350E-01
  11.105  0.551E+00  0.127E+00  0.420E-01  0.106E+00  0.106E+00  0.420E-01  0.127E+00
  11.107  0.296E+00  0.685E-01  0.229E-01  0.566E-01  0.566E-01  0.229E-01  0.685E-01
  11.109  0.109E+00  0.134E-01  0.264E-01  0.148E-01  0.148E-01  0.264E-01  0.134E-01
  11.111  0.360E+00  0.348E-01  0.101E+00  0.443E-01  0.443E-01  0.101E+00  0.348E-01
  11.113  0.366E+00  0.397E-01  0.876E-01  0.555E-01  0.555E-01  0.876E-01  0.397E-01
  11.115  0.725E+00  0.828E-01  0.158E+00  0.122E+00  0.122E+00  0.158E+00  0.828E-01
  11.117  0.651E+00  0.605E-01  0.176E+00  0.894E-01  0.894E-01  0.176E+00  0.605E-01
  11.119  0.371E+00  0.244E-01  0.126E+00  0.344E-01  0.344E-01  0.126E+00  0.244E-01
  11.121  0.672E-01  0.414E-02  0.238E-01  0.569E-02  0.569E-02  0.238E-01  0.414E-02
  11.123  0.121E-01  0.426E-03  0.169E-02  0.393E-02  0.393E-02  0.169E-02  0.426E-03
  11.125  0.153E+00  0.670E-02  0.263E-01  0.435E-01  0.435E-01  0.263E-01  0.670E-02
  11.127  0.578E+00  0.336E-01  0.130E+00  0.125E+00  0.125E+00  0.130E+00  0.336E-01
  11.129  0.484E+00  0.319E-01  0.116E+00  0.935E-01  0.935E-01  0.116E+00  0.319E-01
  11.131  0.413E+00  0.368E-01  0.994E-01  0.703E-01  0.703E-01  0.994E-01  0.368E-01
  11.133  0.108E+01  0.101E+00  0.290E+00  0.150E+00  0.150E+00  0.290E+00  0.101E+00
  11.135  0.107E+01  0.972E-01  0.302E+00  0.138E+00  0.138E+00  0.302E+00  0.972E-01
  11.137  0.255E+00  0.248E-01  0.717E-01  0.308E-01  0.308E-01  0.717E-01  0.248E-01
  11.139  0.230E+00  0.378E-01  0.562E-01  0.208E-01  0.208E-01  0.562E-01  0.378E-01
  11.141  0.544E+00  0.790E-01  0.122E+00  0.715E-01  0.715E-01  0.122E+00  0.790E-01
  11.143  0.131E+01  0.151E+00  0.313E+00  0.191E+00  0.191E+00  0.313E+00  0.151E+00
  11.145  0.151E+01  0.131E+00  0.408E+00  0.215E+00  0.215E+00  0.408E+00  0.131E+00
  11.147  0.871E+00  0.695E-01  0.239E+00  0.127E+00  0.127E+00  0.239E+00  0.695E-01
  11.149  0.681E+00  0.963E-01  0.138E+00  0.106E+00  0.106E+00  0.138E+00  0.963E-01
  11.151  0.692E+00  0.107E+00  0.131E+00  0.108E+00  0.108E+00  0.131E+00  0.107E+00
  11.153  0.233E+00  0.315E-01  0.409E-01  0.442E-01  0.442E-01  0.409E-01  0.315E-01
  11.155  0.407E+00  0.477E-01  0.642E-01  0.915E-01  0.915E-01  0.642E-01  0.477E-01
  11.157  0.808E+00  0.111E+00  0.149E+00  0.144E+00  0.144E+00  0.149E+00  0.111E+00
  11.159  0.895E+00  0.128E+00  0.169E+00  0.150E+00  0.150E+00  0.169E+00  0.128E+00
  11.161  0.281E+00  0.441E-01  0.485E-01  0.479E-01  0.479E-01  0.485E-01  0.441E-01
  11.163  0.350E+00  0.712E-01  0.484E-01  0.555E-01  0.555E-01  0.484E-01  0.712E-01
  11.165  0.327E+00  0.627E-01  0.524E-01  0.485E-01  0.485E-01  0.524E-01  0.627E-01
  11.167  0.280E+00  0.499E-01  0.516E-01  0.387E-01  0.387E-01  0.516E-01  0.499E-01
  11.169  0.708E-01  0.113E-01  0.127E-01  0.114E-01  0.114E-01  0.127E-01  0.113E-01
  11.171  0.594E-01  0.343E-02  0.820E-02  0.181E-01  0.181E-01  0.820E-02  0.343E-02
  11.173  0.452E-01  0.243E-02  0.617E-02  0.140E-01  0.140E-01  0.617E-02  0.243E-02
  11.175  0.688E-02  0.383E-03  0.905E-03  0.215E-02  0.215E-02  0.905E-03  0.383E-03
  11.177  0.461E-01  0.500E-02  0.509E-02  0.130E-01  0.130E-01  0.509E-02  0.500E-02
  11.179  0.282E+00  0.412E-01  0.337E-01  0.658E-01  0.658E-01  0.337E-01  0.412E-01
  11.181  0.674E+00  0.741E-01  0.123E+00  0.140E+00  0.140E+00  0.123E+00  0.741E-01
  11.183  0.756E+00  0.554E-01  0.174E+00  0.148E+00  0.148E+00  0.174E+00  0.554E-01
  11.185  0.507E+00  0.405E-01  0.111E+00  0.102E+00  0.102E+00  0.111E+00  0.405E-01
  11.187  0.397E+00  0.349E-01  0.922E-01  0.712E-01  0.712E-01  0.922E-01  0.349E-01
  11.189  0.294E+00  0.256E-01  0.709E-01  0.504E-01  0.504E-01  0.709E-01  0.256E-01
  11.191  0.418E+00  0.327E-01  0.105E+00  0.709E-01  0.709E-01  0.105E+00  0.327E-01
  11.193  0.472E+00  0.363E-01  0.131E+00  0.687E-01  0.687E-01  0.131E+00  0.363E-01
  11.195  0.524E+00  0.804E-01  0.912E-01  0.905E-01  0.905E-01  0.912E-01  0.804E-01
  11.197  0.114E+01  0.197E+00  0.168E+00  0.204E+00  0.204E+00  0.168E+00  0.197E+00
  11.199  0.843E+00  0.105E+00  0.168E+00  0.149E+00  0.149E+00  0.168E+00  0.105E+00
  11.201  0.634E+00  0.179E-01  0.206E+00  0.934E-01  0.934E-01  0.206E+00  0.179E-01
  11.203  0.373E+00  0.596E-02  0.129E+00  0.519E-01  0.519E-01  0.129E+00  0.596E-02
  11.205  0.418E+00  0.336E-01  0.126E+00  0.495E-01  0.495E-01  0.126E+00  0.336E-01
  11.207  0.701E+00  0.859E-01  0.204E+00  0.604E-01  0.604E-01  0.204E+00  0.859E-01
  11.209  0.307E+00  0.531E-01  0.726E-01  0.280E-01  0.280E-01  0.726E-01  0.531E-01
  11.211  0.324E+00  0.671E-01  0.484E-01  0.465E-01  0.465E-01  0.484E-01  0.671E-01
  11.213  0.420E+00  0.769E-01  0.739E-01  0.591E-01  0.591E-01  0.739E-01  0.769E-01
  11.215  0.346E+00  0.435E-01  0.857E-01  0.439E-01  0.439E-01  0.857E-01  0.435E-01
  11.217  0.143E+00  0.158E-01  0.380E-01  0.176E-01  0.176E-01  0.380E-01  0.158E-01
  11.219  0.384E-01  0.378E-02  0.907E-02  0.635E-02  0.635E-02  0.907E-02  0.378E-02
  11.221  0.298E+00  0.278E-01  0.683E-01  0.531E-01  0.531E-01  0.683E-01  0.278E-01
  11.223  0.421E+00  0.384E-01  0.978E-01  0.744E-01  0.744E-01  0.978E-01  0.384E-01
  11.225  0.817E-01  0.727E-02  0.193E-01  0.143E-01  0.143E-01  0.193E-01  0.727E-02
  11.227  0.218E-02  0.189E-03  0.523E-03  0.377E-03  0.377E-03  0.523E-03  0.189E-03
  11.229  0.921E-05  0.719E-06  0.213E-05  0.175E-05  0.175E-05  0.213E-05  0.719E-06
  11.231  0.482E-03  0.192E-04  0.696E-04  0.152E-03  0.152E-03  0.696E-04  0.192E-04
  11.233  0.277E-01  0.118E-02  0.420E-02  0.848E-02  0.848E-02  0.420E-02  0.118E-02
  11.235  0.278E+00  0.150E-01  0.500E-01  0.738E-01  0.738E-01  0.500E-01  0.150E-01
  11.237  0.747E+00  0.591E-01  0.176E+00  0.139E+00  0.139E+00  0.176E+00  0.591E-01
  11.239  0.581E+00  0.562E-01  0.154E+00  0.801E-01  0.801E-01  0.154E+00  0.562E-01
  11.241  0.101E+00  0.117E-01  0.252E-01  0.135E-01  0.135E-01  0.252E-01  0.117E-01
  11.243  0.229E+00  0.433E-01  0.247E-01  0.463E-01  0.463E-01  0.247E-01  0.433E-01
  11.245  0.535E+00  0.102E+00  0.573E-01  0.109E+00  0.109E+00  0.573E-01  0.102E+00
  11.247  0.379E+00  0.530E-01  0.711E-01  0.655E-01  0.655E-01  0.711E-01  0.530E-01
  11.249  0.717E+00  0.573E-01  0.193E+00  0.108E+00  0.108E+00  0.193E+00  0.573E-01
  11.251  0.880E+00  0.734E-01  0.227E+00  0.140E+00  0.140E+00  0.227E+00  0.734E-01
  11.253  0.938E+00  0.161E+00  0.157E+00  0.151E+00  0.151E+00  0.157E+00  0.161E+00
  11.255  0.104E+01  0.161E+00  0.198E+00  0.159E+00  0.159E+00  0.198E+00  0.161E+00
  11.257  0.723E+00  0.505E-01  0.209E+00  0.102E+00  0.102E+00  0.209E+00  0.505E-01
  11.259  0.334E+00  0.379E-01  0.819E-01  0.472E-01  0.472E-01  0.819E-01  0.379E-01
  11.261  0.363E+00  0.646E-01  0.637E-01  0.530E-01  0.530E-01  0.637E-01  0.646E-01
  11.263  0.919E-01  0.166E-01  0.159E-01  0.135E-01  0.135E-01  0.159E-01  0.166E-01
  11.265  0.319E-02  0.576E-03  0.553E-03  0.468E-03  0.468E-03  0.553E-03  0.576E-03
  11.267  0.314E-03  0.204E-04  0.570E-04  0.797E-04  0.797E-04  0.570E-04  0.204E-04
  11.269  0.170E-01  0.136E-02  0.320E-02  0.396E-02  0.396E-02  0.320E-02  0.136E-02
  11.271  0.181E+00  0.231E-01  0.364E-01  0.308E-01  0.308E-01  0.364E-01  0.231E-01
  11.273  0.425E+00  0.754E-01  0.917E-01  0.455E-01  0.455E-01  0.917E-01  0.754E-01
  11.275  0.190E+00  0.378E-01  0.421E-01  0.148E-01  0.148E-01  0.421E-01  0.378E-01
  11.277  0.129E-01  0.266E-02  0.289E-02  0.906E-03  0.906E-03  0.289E-02  0.266E-02
  11.279  0.937E-03  0.995E-04  0.210E-03  0.159E-03  0.159E-03  0.210E-03  0.995E-04
  11.281  0.397E-01  0.360E-02  0.887E-02  0.737E-02  0.737E-02  0.887E-02  0.360E-02
  11.283  0.269E+00  0.241E-01  0.595E-01  0.510E-01  0.510E-01  0.595E-01  0.241E-01
  11.285  0.349E+00  0.267E-01  0.685E-01  0.794E-01  0.794E-01  0.685E-01  0.267E-01
  11.287  0.368E+00  0.276E-01  0.634E-01  0.932E-01  0.932E-01  0.634E-01  0.276E-01
  11.289  0.678E+00  0.840E-01  0.129E+00  0.126E+00  0.126E+00  0.129E+00  0.840E-01
  11.291  0.590E+00  0.891E-01  0.966E-01  0.109E+00  0.109E+00  0.966E-01  0.891E-01
  11.293  0.202E+00  0.287E-01  0.342E-01  0.378E-01  0.378E-01  0.342E-01  0.287E-01
  11.295  0.459E+00  0.338E-01  0.146E+00  0.494E-01  0.494E-01  0.146E+00  0.338E-01
  11.297  0.820E+00  0.706E-01  0.233E+00  0.106E+00  0.106E+00  0.233E+00  0.706E-01
  11.299  0.764E+00  0.763E-01  0.197E+00  0.109E+00  0.109E+00  0.197E+00  0.763E-01
  11.301  0.690E+00  0.604E-01  0.181E+00  0.104E+00  0.104E+00  0.181E+00  0.604E-01
  11.303  0.542E+00  0.624E-01  0.123E+00  0.859E-01  0.859E-01  0.123E+00  0.624E-01
  11.305  0.482E+00  0.605E-01  0.108E+00  0.723E-01  0.723E-01  0.108E+00  0.605E-01
  11.307  0.682E+00  0.425E-01  0.196E+00  0.102E+00  0.102E+00  0.196E+00  0.425E-01
  11.309  0.107E+01  0.761E-01  0.275E+00  0.186E+00  0.186E+00  0.275E+00  0.761E-01
  11.311  0.924E+00  0.119E+00  0.169E+00  0.174E+00  0.174E+00  0.169E+00  0.119E+00
  11.313  0.406E+00  0.615E-01  0.755E-01  0.662E-01  0.662E-01  0.755E-01  0.615E-01
  11.315  0.572E+00  0.728E-01  0.126E+00  0.875E-01  0.875E-01  0.126E+00  0.728E-01
  11.317  0.240E+00  0.315E-01  0.472E-01  0.415E-01  0.415E-01  0.472E-01  0.315E-01
  11.319  0.147E-01  0.200E-02  0.247E-02  0.286E-02  0.286E-02  0.247E-02  0.200E-02
  11.321  0.128E-03  0.181E-04  0.180E-04  0.279E-04  0.279E-04  0.180E-04  0.181E-04
  11.323  0.160E-06  0.232E-07  0.183E-07  0.383E-07  0.383E-07  0.183E-07  0.232E-07
  11.325  0.245E-06  0.401E-07  0.866E-08  0.738E-07  0.738E-07  0.866E-08  0.401E-07
  11.327  0.124E-03  0.202E-04  0.441E-05  0.373E-04  0.373E-04  0.441E-05  0.202E-04
  11.329  0.910E-02  0.146E-02  0.342E-03  0.275E-02  0.275E-02  0.342E-03  0.146E-02
  11.331  0.109E+00  0.160E-01  0.528E-02  0.330E-01  0.330E-01  0.528E-02  0.160E-01
  11.333  0.292E+00  0.317E-01  0.244E-01  0.897E-01  0.897E-01  0.244E-01  0.317E-01
  11.335  0.251E+00  0.216E-01  0.321E-01  0.720E-01  0.720E-01  0.321E-01  0.216E-01
  11.337  0.420E+00  0.825E-01  0.764E-01  0.512E-01  0.512E-01  0.764E-01  0.825E-01
  11.339  0.995E+00  0.197E+00  0.168E+00  0.132E+00  0.132E+00  0.168E+00  0.197E+00
  11.341  0.485E+00  0.925E-01  0.749E-01  0.752E-01  0.752E-01  0.749E-01  0.925E-01
  11.343  0.204E+00  0.406E-01  0.270E-01  0.343E-01  0.343E-01  0.270E-01  0.406E-01
  11.345  0.561E+00  0.104E+00  0.819E-01  0.949E-01  0.949E-01  0.819E-01  0.104E+00
  11.347  0.551E+00  0.826E-01  0.103E+00  0.899E-01  0.899E-01  0.103E+00  0.826E-01
  11.349  0.500E+00  0.494E-01  0.120E+00  0.804E-01  0.804E-01  0.120E+00  0.494E-01
  11.351  0.791E+00  0.540E-01  0.211E+00  0.131E+00  0.131E+00  0.211E+00  0.540E-01
  11.353  0.597E+00  0.413E-01  0.167E+00  0.897E-01  0.897E-01  0.167E+00  0.413E-01
  11.355  0.219E+00  0.261E-01  0.497E-01  0.339E-01  0.339E-01  0.497E-01  0.261E-01
  11.357  0.605E+00  0.610E-01  0.144E+00  0.969E-01  0.969E-01  0.144E+00  0.610E-01
  11.359  0.852E+00  0.514E-01  0.237E+00  0.137E+00  0.137E+00  0.237E+00  0.514E-01
  11.361  0.560E+00  0.389E-01  0.141E+00  0.997E-01  0.997E-01  0.141E+00  0.389E-01
  11.363  0.565E+00  0.356E-01  0.160E+00  0.873E-01  0.873E-01  0.160E+00  0.356E-01
  11.365  0.358E+00  0.293E-01  0.997E-01  0.501E-01  0.501E-01  0.997E-01  0.293E-01
  11.367  0.482E+00  0.693E-01  0.113E+00  0.589E-01  0.589E-01  0.113E+00  0.693E-01
  11.369  0.595E+00  0.108E+00  0.102E+00  0.873E-01  0.873E-01  0.102E+00  0.108E+00
  11.371  0.260E+00  0.525E-01  0.350E-01  0.424E-01  0.424E-01  0.350E-01  0.525E-01
  11.373  0.210E-01  0.432E-02  0.269E-02  0.350E-02  0.350E-02  0.269E-02  0.432E-02
  11.375  0.459E-02  0.309E-03  0.608E-03  0.138E-02  0.138E-02  0.608E-03  0.309E-03
  11.377  0.837E-01  0.500E-02  0.111E-01  0.257E-01  0.257E-01  0.111E-01  0.500E-02
  11.379  0.220E+00  0.132E-01  0.294E-01  0.675E-01  0.675E-01  0.294E-01  0.132E-01
  11.381  0.145E+00  0.107E-01  0.252E-01  0.364E-01  0.364E-01  0.252E-01  0.107E-01
  11.383  0.353E+00  0.320E-01  0.810E-01  0.635E-01  0.635E-01  0.810E-01  0.320E-01
  11.385  0.612E+00  0.562E-01  0.166E+00  0.836E-01  0.836E-01  0.166E+00  0.562E-01
  11.387  0.867E+00  0.937E-01  0.231E+00  0.109E+00  0.109E+00  0.231E+00  0.937E-01
  11.389  0.520E+00  0.764E-01  0.102E+00  0.815E-01  0.815E-01  0.102E+00  0.764E-01
  11.391  0.717E-01  0.123E-01  0.108E-01  0.128E-01  0.128E-01  0.108E-01  0.123E-01
  11.393  0.170E-01  0.187E-02  0.371E-02  0.293E-02  0.293E-02  0.371E-02  0.187E-02
  11.395  0.255E+00  0.258E-01  0.534E-01  0.485E-01  0.485E-01  0.534E-01  0.258E-01
  11.397  0.723E+00  0.748E-01  0.134E+00  0.153E+00  0.153E+00  0.134E+00  0.748E-01
  11.399  0.832E+00  0.916E-01  0.178E+00  0.146E+00  0.146E+00  0.178E+00  0.916E-01
  11.401  0.990E+00  0.143E+00  0.232E+00  0.120E+00  0.120E+00  0.232E+00  0.143E+00
  11.403  0.466E+00  0.812E-01  0.105E+00  0.463E-01  0.463E-01  0.105E+00  0.812E-01
  11.405  0.574E+00  0.326E-01  0.174E+00  0.800E-01  0.800E-01  0.174E+00  0.326E-01
  11.407  0.626E+00  0.360E-01  0.184E+00  0.928E-01  0.928E-01  0.184E+00  0.360E-01
  11.409  0.122E+00  0.844E-02  0.335E-01  0.190E-01  0.190E-01  0.335E-01  0.844E-02
  11.411  0.242E+00  0.141E-01  0.667E-01  0.401E-01  0.401E-01  0.667E-01  0.141E-01
  11.413  0.440E+00  0.254E-01  0.122E+00  0.728E-01  0.728E-01  0.122E+00  0.254E-01
  11.415  0.244E+00  0.130E-01  0.707E-01  0.381E-01  0.381E-01  0.707E-01  0.130E-01
  11.417  0.455E+00  0.230E-01  0.135E+00  0.694E-01  0.694E-01  0.135E+00  0.230E-01
  11.419  0.327E+00  0.198E-01  0.758E-01  0.676E-01  0.676E-01  0.758E-01  0.198E-01
  11.421  0.355E+00  0.407E-01  0.539E-01  0.832E-01  0.832E-01  0.539E-01  0.407E-01
  11.423  0.363E+00  0.639E-01  0.603E-01  0.572E-01  0.572E-01  0.603E-01  0.639E-01
  11.425  0.137E+00  0.236E-01  0.248E-01  0.202E-01  0.202E-01  0.248E-01  0.236E-01
  11.427  0.479E+00  0.609E-01  0.985E-01  0.801E-01  0.801E-01  0.985E-01  0.609E-01
  11.429  0.128E+01  0.196E+00  0.231E+00  0.213E+00  0.213E+00  0.231E+00  0.196E+00
  11.431  0.843E+00  0.152E+00  0.125E+00  0.144E+00  0.144E+00  0.125E+00  0.152E+00
  11.433  0.286E+00  0.428E-01  0.600E-01  0.403E-01  0.403E-01  0.600E-01  0.428E-01
  11.435  0.440E+00  0.710E-01  0.760E-01  0.729E-01  0.729E-01  0.760E-01  0.710E-01
  11.437  0.338E+00  0.585E-01  0.469E-01  0.634E-01  0.634E-01  0.469E-01  0.585E-01
  11.439  0.202E+00  0.182E-01  0.354E-01  0.472E-01  0.472E-01  0.354E-01  0.182E-01
  11.441  0.380E+00  0.332E-01  0.743E-01  0.824E-01  0.824E-01  0.743E-01  0.332E-01
  11.443  0.477E+00  0.586E-01  0.915E-01  0.885E-01  0.885E-01  0.915E-01  0.586E-01
  11.445  0.310E+00  0.398E-01  0.543E-01  0.606E-01  0.606E-01  0.543E-01  0.398E-01
  11.447  0.420E+00  0.250E-01  0.117E+00  0.678E-01  0.678E-01  0.117E+00  0.250E-01
  11.449  0.640E+00  0.202E-01  0.209E+00  0.905E-01  0.905E-01  0.209E+00  0.202E-01
  11.451  0.408E+00  0.105E-01  0.138E+00  0.551E-01  0.551E-01  0.138E+00  0.105E-01
  11.453  0.216E+00  0.211E-01  0.587E-01  0.281E-01  0.281E-01  0.587E-01  0.211E-01
  11.455  0.417E+00  0.485E-01  0.105E+00  0.547E-01  0.547E-01  0.105E+00  0.485E-01
  11.457  0.224E+00  0.227E-01  0.456E-01  0.436E-01  0.436E-01  0.456E-01  0.227E-01
  11.459  0.240E+00  0.199E-01  0.321E-01  0.680E-01  0.680E-01  0.321E-01  0.199E-01
  11.461  0.183E+00  0.321E-01  0.281E-01  0.311E-01  0.311E-01  0.281E-01  0.321E-01
  11.463  0.382E+00  0.946E-01  0.657E-01  0.306E-01  0.306E-01  0.657E-01  0.946E-01
  11.465  0.226E+00  0.488E-01  0.434E-01  0.206E-01  0.206E-01  0.434E-01  0.488E-01
  11.467  0.522E+00  0.334E-01  0.149E+00  0.783E-01  0.783E-01  0.149E+00  0.334E-01
  11.469  0.112E+01  0.681E-01  0.326E+00  0.168E+00  0.168E+00  0.326E+00  0.681E-01
  11.471  0.420E+00  0.251E-01  0.123E+00  0.624E-01  0.624E-01  0.123E+00  0.251E-01
  11.473  0.250E-01  0.144E-02  0.735E-02  0.370E-02  0.370E-02  0.735E-02  0.144E-02
  11.475  0.108E-01  0.113E-02  0.290E-02  0.138E-02  0.138E-02  0.290E-02  0.113E-02
  11.477  0.272E+00  0.275E-01  0.753E-01  0.333E-01  0.333E-01  0.753E-01  0.275E-01
  11.479  0.102E+01  0.101E+00  0.286E+00  0.121E+00  0.121E+00  0.286E+00  0.101E+00
  11.481  0.827E+00  0.103E+00  0.193E+00  0.118E+00  0.118E+00  0.193E+00  0.103E+00
  11.483  0.584E+00  0.785E-01  0.102E+00  0.111E+00  0.111E+00  0.102E+00  0.785E-01
  11.485  0.757E+00  0.688E-01  0.158E+00  0.152E+00  0.152E+00  0.158E+00  0.688E-01
  11.487  0.559E+00  0.518E-01  0.130E+00  0.980E-01  0.980E-01  0.130E+00  0.518E-01
  11.489  0.625E+00  0.576E-01  0.160E+00  0.949E-01  0.949E-01  0.160E+00  0.576E-01
  11.491  0.103E+01  0.114E+00  0.238E+00  0.162E+00  0.162E+00  0.238E+00  0.114E+00
  11.493  0.686E+00  0.771E-01  0.134E+00  0.132E+00  0.132E+00  0.134E+00  0.771E-01
  11.495  0.656E+00  0.652E-01  0.130E+00  0.133E+00  0.133E+00  0.130E+00  0.652E-01
  11.497  0.250E+00  0.269E-01  0.510E-01  0.471E-01  0.471E-01  0.510E-01  0.269E-01
  11.499  0.510E+00  0.707E-01  0.924E-01  0.921E-01  0.921E-01  0.924E-01  0.707E-01
  11.501  0.685E+00  0.101E+00  0.131E+00  0.111E+00  0.111E+00  0.131E+00  0.101E+00
  11.503  0.847E+00  0.119E+00  0.187E+00  0.118E+00  0.118E+00  0.187E+00  0.119E+00
  11.505  0.379E+00  0.538E-01  0.828E-01  0.528E-01  0.528E-01  0.828E-01  0.538E-01
  11.507  0.727E-01  0.128E-01  0.115E-01  0.121E-01  0.121E-01  0.115E-01  0.128E-01
  11.509  0.239E+00  0.510E-01  0.239E-01  0.446E-01  0.446E-01  0.239E-01  0.510E-01
  11.511  0.198E+00  0.423E-01  0.198E-01  0.370E-01  0.370E-01  0.198E-01  0.423E-01
  11.513  0.223E-01  0.476E-02  0.224E-02  0.417E-02  0.417E-02  0.224E-02  0.476E-02
  11.515  0.905E-02  0.423E-03  0.269E-02  0.141E-02  0.141E-02  0.269E-02  0.423E-03
  11.517  0.169E+00  0.721E-02  0.514E-01  0.261E-01  0.261E-01  0.514E-01  0.721E-02
  11.519  0.512E+00  0.361E-01  0.146E+00  0.742E-01  0.742E-01  0.146E+00  0.361E-01
  11.521  0.642E+00  0.106E+00  0.141E+00  0.741E-01  0.741E-01  0.141E+00  0.106E+00
  11.523  0.969E+00  0.119E+00  0.231E+00  0.135E+00  0.135E+00  0.231E+00  0.119E+00
  11.525  0.150E+01  0.165E+00  0.338E+00  0.248E+00  0.248E+00  0.338E+00  0.165E+00
  11.527  0.138E+01  0.120E+00  0.333E+00  0.237E+00  0.237E+00  0.333E+00  0.120E+00
  11.529  0.733E+00  0.439E-01  0.191E+00  0.132E+00  0.132E+00  0.191E+00  0.439E-01
  11.531  0.312E+00  0.233E-01  0.642E-01  0.685E-01  0.685E-01  0.642E-01  0.233E-01
  11.533  0.453E-01  0.363E-02  0.871E-02  0.103E-01  0.103E-01  0.871E-02  0.363E-02
  11.535  0.716E-01  0.536E-02  0.194E-01  0.110E-01  0.110E-01  0.194E-01  0.536E-02
  11.537  0.387E+00  0.294E-01  0.105E+00  0.587E-01  0.587E-01  0.105E+00  0.294E-01
  11.539  0.531E+00  0.426E-01  0.145E+00  0.781E-01  0.781E-01  0.145E+00  0.426E-01
  11.541  0.291E+00  0.256E-01  0.807E-01  0.393E-01  0.393E-01  0.807E-01  0.256E-01
  11.543  0.200E+00  0.214E-01  0.586E-01  0.199E-01  0.199E-01  0.586E-01  0.214E-01
  11.545  0.203E+00  0.210E-01  0.556E-01  0.248E-01  0.248E-01  0.556E-01  0.210E-01
  11.547  0.587E+00  0.634E-01  0.145E+00  0.852E-01  0.852E-01  0.145E+00  0.634E-01
  11.549  0.576E+00  0.811E-01  0.111E+00  0.953E-01  0.953E-01  0.111E+00  0.811E-01
  11.551  0.629E+00  0.108E+00  0.959E-01  0.111E+00  0.111E+00  0.959E-01  0.108E+00
  11.553  0.589E+00  0.734E-01  0.121E+00  0.101E+00  0.101E+00  0.121E+00  0.734E-01
  11.555  0.375E+00  0.398E-01  0.694E-01  0.785E-01  0.785E-01  0.694E-01  0.398E-01
  11.557  0.188E+00  0.220E-01  0.264E-01  0.456E-01  0.456E-01  0.264E-01  0.220E-01
  11.559  0.843E-01  0.504E-02  0.225E-01  0.146E-01  0.146E-01  0.225E-01  0.504E-02
  11.561  0.488E+00  0.229E-01  0.147E+00  0.739E-01  0.739E-01  0.147E+00  0.229E-01
  11.563  0.861E+00  0.670E-01  0.223E+00  0.140E+00  0.140E+00  0.223E+00  0.670E-01
  11.565  0.937E+00  0.102E+00  0.205E+00  0.161E+00  0.161E+00  0.205E+00  0.102E+00
  11.567  0.359E+00  0.408E-01  0.792E-01  0.597E-01  0.597E-01  0.792E-01  0.408E-01
  11.569  0.462E+00  0.399E-01  0.125E+00  0.660E-01  0.660E-01  0.125E+00  0.399E-01
  11.571  0.721E+00  0.653E-01  0.186E+00  0.109E+00  0.109E+00  0.186E+00  0.653E-01
  11.573  0.984E+00  0.891E-01  0.264E+00  0.140E+00  0.140E+00  0.264E+00  0.891E-01
  11.575  0.119E+01  0.146E+00  0.282E+00  0.164E+00  0.164E+00  0.282E+00  0.146E+00
  11.577  0.740E+00  0.964E-01  0.173E+00  0.100E+00  0.100E+00  0.173E+00  0.964E-01
  11.579  0.453E+00  0.814E-01  0.748E-01  0.706E-01  0.706E-01  0.748E-01  0.814E-01
  11.581  0.821E+00  0.146E+00  0.120E+00  0.145E+00  0.145E+00  0.120E+00  0.146E+00
  11.583  0.861E+00  0.123E+00  0.159E+00  0.149E+00  0.149E+00  0.159E+00  0.123E+00
  11.585  0.740E+00  0.122E+00  0.124E+00  0.124E+00  0.124E+00  0.124E+00  0.122E+00
  11.587  0.547E+00  0.773E-01  0.964E-01  0.100E+00  0.100E+00  0.964E-01  0.773E-01
  11.589  0.220E+00  0.213E-01  0.494E-01  0.393E-01  0.393E-01  0.494E-01  0.213E-01
  11.591  0.573E+00  0.369E-01  0.166E+00  0.838E-01  0.838E-01  0.166E+00  0.369E-01
  11.593  0.101E+01  0.736E-01  0.279E+00  0.154E+00  0.154E+00  0.279E+00  0.736E-01
  11.595  0.562E+00  0.757E-01  0.114E+00  0.913E-01  0.913E-01  0.114E+00  0.757E-01
  11.597  0.186E+00  0.340E-01  0.275E-01  0.317E-01  0.317E-01  0.275E-01  0.340E-01
  11.599  0.343E+00  0.603E-01  0.513E-01  0.599E-01  0.599E-01  0.513E-01  0.603E-01
  11.601  0.274E+00  0.481E-01  0.411E-01  0.479E-01  0.479E-01  0.411E-01  0.481E-01
  11.603  0.101E+00  0.174E-01  0.136E-01  0.197E-01  0.197E-01  0.136E-01  0.174E-01
  11.605  0.385E+00  0.657E-01  0.514E-01  0.754E-01  0.754E-01  0.514E-01  0.657E-01
  11.607  0.473E+00  0.822E-01  0.727E-01  0.814E-01  0.814E-01  0.727E-01  0.822E-01
  11.609  0.379E+00  0.605E-01  0.692E-01  0.599E-01  0.599E-01  0.692E-01  0.605E-01
  11.611  0.906E+00  0.117E+00  0.187E+00  0.149E+00  0.149E+00  0.187E+00  0.117E+00
  11.613  0.137E+01  0.156E+00  0.312E+00  0.215E+00  0.215E+00  0.312E+00  0.156E+00
  11.615  0.772E+00  0.783E-01  0.178E+00  0.130E+00  0.130E+00  0.178E+00  0.783E-01
  11.617  0.388E+00  0.386E-01  0.756E-01  0.796E-01  0.796E-01  0.756E-01  0.386E-01
  11.619  0.344E+00  0.223E-01  0.892E-01  0.607E-01  0.607E-01  0.892E-01  0.223E-01
  11.621  0.599E+00  0.383E-01  0.162E+00  0.996E-01  0.996E-01  0.162E+00  0.383E-01
  11.623  0.577E+00  0.888E-01  0.123E+00  0.768E-01  0.768E-01  0.123E+00  0.888E-01
  11.625  0.135E+01  0.197E+00  0.291E+00  0.185E+00  0.185E+00  0.291E+00  0.197E+00
  11.627  0.107E+01  0.141E+00  0.232E+00  0.164E+00  0.164E+00  0.232E+00  0.141E+00
