# E (eV)   ldos(E)   pdos(E)_1   pdos(E)_2   
   7.605  0.522E-07  0.261E-07  0.261E-07
   7.607  0.545E-05  0.272E-05  0.272E-05
   7.609  0.185E-03  0.927E-04  0.927E-04
   7.611  0.143E-02  0.717E-03  0.717E-03
   7.613  0.182E-02  0.912E-03  0.912E-03
   7.615  0.437E-03  0.219E-03  0.219E-03
   7.617  0.251E-04  0.126E-04  0.126E-04
   7.619  0.295E-06  0.147E-06  0.147E-06
   7.621  0.537E-09  0.268E-09  0.268E-09
   7.623  0.137E-12  0.683E-13  0.683E-13
   7.625  0.474E-17  0.237E-17  0.237E-17
   7.627  0.121E-25  0.603E-26  0.603E-26
   7.629  0.140E-28  0.702E-29  0.702E-29
   7.631  0.221E-32  0.111E-32  0.111E-32
   7.633  0.932E-20  0.466E-20  0.466E-20
   7.635  0.981E-15  0.491E-15  0.491E-15
   7.637  0.140E-10  0.699E-11  0.699E-11
   7.639  0.270E-07  0.135E-07  0.135E-07
   7.641  0.708E-05  0.354E-05  0.354E-05
   7.643  0.254E-03  0.127E-03  0.127E-03
   7.645  0.126E-02  0.632E-03  0.632E-03
   7.647  0.908E-03  0.454E-03  0.454E-03
   7.649  0.101E-03  0.507E-04  0.507E-04
   7.651  0.192E-05  0.959E-06  0.959E-06
   7.653  0.247E-07  0.123E-07  0.123E-07
   7.655  0.679E-05  0.339E-05  0.339E-05
   7.657  0.339E-03  0.169E-03  0.169E-03
   7.659  0.229E-02  0.114E-02  0.114E-02
   7.661  0.209E-02  0.105E-02  0.105E-02
   7.663  0.261E-03  0.130E-03  0.130E-03
   7.665  0.787E-04  0.393E-04  0.393E-04
   7.667  0.406E-03  0.203E-03  0.203E-03
   7.669  0.299E-03  0.150E-03  0.150E-03
   7.671  0.299E-04  0.150E-04  0.150E-04
   7.673  0.287E-05  0.144E-05  0.144E-05
   7.675  0.116E-03  0.578E-04  0.578E-04
   7.677  0.738E-03  0.369E-03  0.369E-03
   7.679  0.644E-03  0.322E-03  0.322E-03
   7.681  0.771E-04  0.385E-04  0.385E-04
   7.683  0.459E-04  0.229E-04  0.229E-04
   7.685  0.190E-02  0.950E-03  0.950E-03
   7.687  0.109E-01  0.547E-02  0.547E-02
   7.689  0.853E-02  0.427E-02  0.427E-02
   7.691  0.900E-03  0.450E-03  0.450E-03
   7.693  0.129E-04  0.643E-05  0.643E-05
   7.695  0.248E-07  0.124E-07  0.124E-07
   7.697  0.650E-11  0.325E-11  0.325E-11
   7.699  0.114E-12  0.569E-13  0.569E-13
   7.701  0.520E-09  0.260E-09  0.260E-09
   7.703  0.322E-06  0.161E-06  0.161E-06
   7.705  0.271E-04  0.136E-04  0.136E-04
   7.707  0.309E-03  0.154E-03  0.154E-03
   7.709  0.477E-03  0.239E-03  0.239E-03
   7.711  0.998E-04  0.499E-04  0.499E-04
   7.713  0.283E-05  0.141E-05  0.141E-05
   7.715  0.109E-07  0.543E-08  0.543E-08
   7.717  0.565E-11  0.283E-11  0.283E-11
   7.719  0.869E-15  0.434E-15  0.434E-15
   7.721  0.932E-11  0.466E-11  0.466E-11
   7.723  0.259E-07  0.130E-07  0.130E-07
   7.725  0.101E-04  0.507E-05  0.507E-05
   7.727  0.559E-03  0.279E-03  0.279E-03
   7.729  0.433E-02  0.216E-02  0.216E-02
   7.731  0.469E-02  0.234E-02  0.234E-02
   7.733  0.786E-03  0.393E-03  0.393E-03
   7.735  0.738E-02  0.369E-02  0.369E-02
   7.737  0.110E+00  0.549E-01  0.549E-01
   7.739  0.333E+00  0.166E+00  0.166E+00
   7.741  0.507E+00  0.254E+00  0.254E+00
   7.743  0.683E+00  0.342E+00  0.342E+00
   7.745  0.588E+00  0.294E+00  0.294E+00
   7.747  0.264E+00  0.132E+00  0.132E+00
   7.749  0.141E+00  0.705E-01  0.705E-01
   7.751  0.144E+00  0.719E-01  0.719E-01
   7.753  0.730E-01  0.365E-01  0.365E-01
   7.755  0.610E-01  0.305E-01  0.305E-01
   7.757  0.708E-01  0.354E-01  0.354E-01
   7.759  0.126E+00  0.628E-01  0.628E-01
   7.761  0.119E+00  0.595E-01  0.595E-01
   7.763  0.179E-01  0.893E-02  0.893E-02
   7.765  0.229E-01  0.115E-01  0.115E-01
   7.767  0.674E-01  0.337E-01  0.337E-01
   7.769  0.360E-01  0.180E-01  0.180E-01
   7.771  0.742E-01  0.371E-01  0.371E-01
   7.773  0.120E+00  0.598E-01  0.598E-01
   7.775  0.556E-01  0.278E-01  0.278E-01
   7.777  0.612E-02  0.306E-02  0.306E-02
   7.779  0.168E-01  0.838E-02  0.838E-02
   7.781  0.630E-01  0.315E-01  0.315E-01
   7.783  0.333E-01  0.167E-01  0.167E-01
   7.785  0.278E-01  0.139E-01  0.139E-01
   7.787  0.808E-01  0.404E-01  0.404E-01
   7.789  0.371E-01  0.185E-01  0.185E-01
   7.791  0.354E-01  0.177E-01  0.177E-01
   7.793  0.599E-01  0.299E-01  0.299E-01
   7.795  0.267E-01  0.134E-01  0.134E-01
   7.797  0.444E-01  0.222E-01  0.222E-01
   7.799  0.643E-01  0.321E-01  0.321E-01
   7.801  0.186E-01  0.930E-02  0.930E-02
   7.803  0.194E-01  0.968E-02  0.968E-02
   7.805  0.799E-01  0.399E-01  0.399E-01
   7.807  0.498E-01  0.249E-01  0.249E-01
   7.809  0.433E-02  0.216E-02  0.216E-02
   7.811  0.163E-03  0.817E-04  0.817E-04
   7.813  0.606E-02  0.303E-02  0.303E-02
   7.815  0.449E-01  0.224E-01  0.224E-01
   7.817  0.577E-01  0.289E-01  0.289E-01
   7.819  0.627E-01  0.314E-01  0.314E-01
   7.821  0.320E-01  0.160E-01  0.160E-01
   7.823  0.334E-02  0.167E-02  0.167E-02
   7.825  0.229E-01  0.115E-01  0.115E-01
   7.827  0.779E-01  0.389E-01  0.389E-01
   7.829  0.359E-01  0.179E-01  0.179E-01
   7.831  0.223E-02  0.112E-02  0.112E-02
   7.833  0.189E-04  0.946E-05  0.946E-05
   7.835  0.721E-06  0.360E-06  0.360E-06
   7.837  0.418E-05  0.209E-05  0.209E-05
   7.839  0.720E-03  0.360E-03  0.360E-03
   7.841  0.221E-01  0.111E-01  0.111E-01
   7.843  0.988E-01  0.494E-01  0.494E-01
   7.845  0.647E-01  0.324E-01  0.324E-01
   7.847  0.637E-02  0.318E-02  0.318E-02
   7.849  0.793E-02  0.396E-02  0.396E-02
   7.851  0.595E-01  0.297E-01  0.297E-01
   7.853  0.610E-01  0.305E-01  0.305E-01
   7.855  0.848E-02  0.424E-02  0.424E-02
   7.857  0.159E-03  0.797E-04  0.797E-04
   7.859  0.443E-06  0.221E-06  0.221E-06
   7.861  0.132E-04  0.660E-05  0.660E-05
   7.863  0.632E-03  0.316E-03  0.316E-03
   7.865  0.414E-02  0.207E-02  0.207E-02
   7.867  0.713E-02  0.357E-02  0.357E-02
   7.869  0.358E-01  0.179E-01  0.179E-01
   7.871  0.481E-01  0.240E-01  0.240E-01
   7.873  0.158E-01  0.789E-02  0.789E-02
   7.875  0.412E-01  0.206E-01  0.206E-01
   7.877  0.415E-01  0.207E-01  0.207E-01
   7.879  0.656E-01  0.328E-01  0.328E-01
   7.881  0.604E-01  0.302E-01  0.302E-01
   7.883  0.154E-01  0.768E-02  0.768E-02
   7.885  0.232E-02  0.116E-02  0.116E-02
   7.887  0.780E-04  0.390E-04  0.390E-04
   7.889  0.370E-06  0.185E-06  0.185E-06
   7.891  0.249E-09  0.125E-09  0.125E-09
   7.893  0.506E-07  0.253E-07  0.253E-07
   7.895  0.317E-04  0.158E-04  0.158E-04
   7.897  0.268E-02  0.134E-02  0.134E-02
   7.899  0.307E-01  0.154E-01  0.154E-01
   7.901  0.476E-01  0.238E-01  0.238E-01
   7.903  0.106E-01  0.532E-02  0.532E-02
   7.905  0.892E-02  0.446E-02  0.446E-02
   7.907  0.186E-01  0.928E-02  0.928E-02
   7.909  0.514E-01  0.257E-01  0.257E-01
   7.911  0.115E+00  0.575E-01  0.575E-01
   7.913  0.392E-01  0.196E-01  0.196E-01
   7.915  0.190E-02  0.948E-03  0.948E-03
   7.917  0.130E-04  0.648E-05  0.648E-05
   7.919  0.125E-07  0.624E-08  0.624E-08
   7.921  0.168E-11  0.839E-12  0.839E-12
   7.923  0.253E-13  0.126E-13  0.126E-13
   7.925  0.387E-09  0.194E-09  0.194E-09
   7.927  0.805E-06  0.402E-06  0.402E-06
   7.929  0.226E-03  0.113E-03  0.113E-03
   7.931  0.860E-02  0.430E-02  0.430E-02
   7.933  0.443E-01  0.221E-01  0.221E-01
   7.935  0.310E-01  0.155E-01  0.155E-01
   7.937  0.590E-02  0.295E-02  0.295E-02
   7.939  0.759E-02  0.379E-02  0.379E-02
   7.941  0.618E-02  0.309E-02  0.309E-02
   7.943  0.424E-01  0.212E-01  0.212E-01
   7.945  0.667E-01  0.334E-01  0.334E-01
   7.947  0.222E-01  0.111E-01  0.111E-01
   7.949  0.363E-01  0.181E-01  0.181E-01
   7.951  0.217E-01  0.108E-01  0.108E-01
   7.953  0.178E-02  0.889E-03  0.889E-03
   7.955  0.197E-04  0.985E-05  0.985E-05
   7.957  0.155E-06  0.774E-07  0.774E-07
   7.959  0.430E-04  0.215E-04  0.215E-04
   7.961  0.237E-02  0.119E-02  0.119E-02
   7.963  0.270E-01  0.135E-01  0.135E-01
   7.965  0.811E-01  0.406E-01  0.406E-01
   7.967  0.940E-01  0.470E-01  0.470E-01
   7.969  0.105E+00  0.523E-01  0.523E-01
   7.971  0.646E-01  0.323E-01  0.323E-01
   7.973  0.267E-01  0.134E-01  0.134E-01
   7.975  0.575E-01  0.288E-01  0.288E-01
   7.977  0.298E-01  0.149E-01  0.149E-01
   7.979  0.680E-01  0.340E-01  0.340E-01
   7.981  0.101E+00  0.505E-01  0.505E-01
   7.983  0.263E-01  0.132E-01  0.132E-01
   7.985  0.156E-02  0.781E-03  0.781E-03
   7.987  0.167E-01  0.834E-02  0.834E-02
   7.989  0.815E-01  0.408E-01  0.408E-01
   7.991  0.595E-01  0.298E-01  0.298E-01
   7.993  0.145E-01  0.723E-02  0.723E-02
   7.995  0.385E-01  0.192E-01  0.192E-01
   7.997  0.251E-01  0.126E-01  0.126E-01
   7.999  0.222E-02  0.111E-02  0.111E-02
   8.001  0.266E-04  0.133E-04  0.133E-04
   8.003  0.457E-05  0.228E-05  0.228E-05
   8.005  0.810E-03  0.405E-03  0.405E-03
   8.007  0.217E-01  0.109E-01  0.109E-01
   8.009  0.921E-01  0.460E-01  0.460E-01
   8.011  0.636E-01  0.318E-01  0.318E-01
   8.013  0.150E-01  0.751E-02  0.751E-02
   8.015  0.391E-01  0.195E-01  0.195E-01
   8.017  0.629E-01  0.314E-01  0.314E-01
   8.019  0.707E-01  0.353E-01  0.353E-01
   8.021  0.501E-01  0.250E-01  0.250E-01
   8.023  0.602E-02  0.301E-02  0.301E-02
   8.025  0.994E-04  0.497E-04  0.497E-04
   8.027  0.277E-04  0.138E-04  0.138E-04
   8.029  0.200E-02  0.999E-03  0.999E-03
   8.031  0.197E-01  0.986E-02  0.986E-02
   8.033  0.303E-01  0.151E-01  0.151E-01
   8.035  0.447E-01  0.223E-01  0.223E-01
   8.037  0.534E-01  0.267E-01  0.267E-01
   8.039  0.161E-01  0.806E-02  0.806E-02
   8.041  0.317E-01  0.158E-01  0.158E-01
   8.043  0.206E-01  0.103E-01  0.103E-01
   8.045  0.591E-02  0.295E-02  0.295E-02
   8.047  0.148E-01  0.741E-02  0.741E-02
   8.049  0.180E-01  0.902E-02  0.902E-02
   8.051  0.412E-01  0.206E-01  0.206E-01
   8.053  0.200E-01  0.100E-01  0.100E-01
   8.055  0.133E-02  0.667E-03  0.667E-03
   8.057  0.641E-03  0.321E-03  0.321E-03
   8.059  0.170E-01  0.852E-02  0.852E-02
   8.061  0.625E-01  0.313E-01  0.313E-01
   8.063  0.311E-01  0.156E-01  0.156E-01
   8.065  0.855E-02  0.428E-02  0.428E-02
   8.067  0.482E-01  0.241E-01  0.241E-01
   8.069  0.626E-01  0.313E-01  0.313E-01
   8.071  0.353E-01  0.176E-01  0.176E-01
   8.073  0.134E-01  0.671E-02  0.671E-02
   8.075  0.253E-01  0.126E-01  0.126E-01
   8.077  0.132E-01  0.660E-02  0.660E-02
   8.079  0.941E-03  0.471E-03  0.471E-03
   8.081  0.908E-05  0.454E-05  0.454E-05
   8.083  0.119E-07  0.594E-08  0.594E-08
   8.085  0.425E-07  0.212E-07  0.212E-07
   8.087  0.195E-04  0.975E-05  0.975E-05
   8.089  0.121E-02  0.606E-03  0.606E-03
   8.091  0.102E-01  0.510E-02  0.510E-02
   8.093  0.135E-01  0.676E-02  0.676E-02
   8.095  0.246E-01  0.123E-01  0.123E-01
   8.097  0.366E-01  0.183E-01  0.183E-01
   8.099  0.899E-02  0.449E-02  0.449E-02
   8.101  0.184E-01  0.920E-02  0.920E-02
   8.103  0.847E-01  0.423E-01  0.423E-01
   8.105  0.122E+00  0.608E-01  0.608E-01
   8.107  0.320E-01  0.160E-01  0.160E-01
   8.109  0.123E-02  0.616E-03  0.616E-03
   8.111  0.671E-05  0.335E-05  0.335E-05
   8.113  0.944E-05  0.472E-05  0.472E-05
   8.115  0.913E-03  0.456E-03  0.456E-03
   8.117  0.120E-01  0.598E-02  0.598E-02
   8.119  0.212E-01  0.106E-01  0.106E-01
   8.121  0.508E-02  0.254E-02  0.254E-02
   8.123  0.300E-03  0.150E-03  0.150E-03
   8.125  0.448E-02  0.224E-02  0.224E-02
   8.127  0.201E-01  0.101E-01  0.101E-01
   8.129  0.133E-01  0.667E-02  0.667E-02
   8.131  0.127E-01  0.634E-02  0.634E-02
   8.133  0.165E-01  0.825E-02  0.825E-02
   8.135  0.124E-01  0.618E-02  0.618E-02
   8.137  0.230E-01  0.115E-01  0.115E-01
   8.139  0.127E-01  0.635E-02  0.635E-02
   8.141  0.616E-01  0.308E-01  0.308E-01
   8.143  0.192E+00  0.961E-01  0.961E-01
   8.145  0.195E+00  0.977E-01  0.977E-01
   8.147  0.928E-01  0.464E-01  0.464E-01
   8.149  0.158E+00  0.790E-01  0.790E-01
   8.151  0.100E+00  0.500E-01  0.500E-01
   8.153  0.147E-01  0.734E-02  0.734E-02
   8.155  0.276E-01  0.138E-01  0.138E-01
   8.157  0.109E+00  0.545E-01  0.545E-01
   8.159  0.781E-01  0.391E-01  0.391E-01
   8.161  0.264E-01  0.132E-01  0.132E-01
   8.163  0.822E-02  0.411E-02  0.411E-02
   8.165  0.214E-02  0.107E-02  0.107E-02
   8.167  0.316E-01  0.158E-01  0.158E-01
   8.169  0.110E+00  0.550E-01  0.550E-01
   8.171  0.987E-01  0.493E-01  0.493E-01
   8.173  0.339E-01  0.169E-01  0.169E-01
   8.175  0.463E-02  0.231E-02  0.231E-02
   8.177  0.129E-03  0.646E-04  0.646E-04
   8.179  0.132E-03  0.660E-04  0.660E-04
   8.181  0.695E-02  0.348E-02  0.348E-02
   8.183  0.548E-01  0.274E-01  0.274E-01
   8.185  0.938E-01  0.469E-01  0.469E-01
   8.187  0.665E-01  0.333E-01  0.333E-01
   8.189  0.592E-01  0.296E-01  0.296E-01
   8.191  0.238E-01  0.119E-01  0.119E-01
   8.193  0.619E-02  0.309E-02  0.309E-02
   8.195  0.384E-01  0.192E-01  0.192E-01
   8.197  0.737E-01  0.369E-01  0.369E-01
   8.199  0.404E-01  0.202E-01  0.202E-01
   8.201  0.477E-01  0.238E-01  0.238E-01
   8.203  0.857E-01  0.429E-01  0.429E-01
   8.205  0.722E-01  0.361E-01  0.361E-01
   8.207  0.352E-01  0.176E-01  0.176E-01
   8.209  0.169E-01  0.847E-02  0.847E-02
   8.211  0.364E-02  0.182E-02  0.182E-02
   8.213  0.152E-03  0.758E-04  0.758E-04
   8.215  0.206E-02  0.103E-02  0.103E-02
   8.217  0.162E-01  0.811E-02  0.811E-02
   8.219  0.174E-01  0.869E-02  0.869E-02
   8.221  0.592E-02  0.296E-02  0.296E-02
   8.223  0.361E-01  0.181E-01  0.181E-01
   8.225  0.563E-01  0.281E-01  0.281E-01
   8.227  0.505E-01  0.253E-01  0.253E-01
   8.229  0.466E-01  0.233E-01  0.233E-01
   8.231  0.736E-02  0.368E-02  0.368E-02
   8.233  0.964E-02  0.482E-02  0.482E-02
   8.235  0.614E-01  0.307E-01  0.307E-01
   8.237  0.554E-01  0.277E-01  0.277E-01
   8.239  0.950E-02  0.475E-02  0.475E-02
   8.241  0.131E-01  0.653E-02  0.653E-02
   8.243  0.209E-01  0.105E-01  0.105E-01
   8.245  0.471E-01  0.236E-01  0.236E-01
   8.247  0.587E-01  0.293E-01  0.293E-01
   8.249  0.950E-01  0.475E-01  0.475E-01
   8.251  0.805E-01  0.403E-01  0.403E-01
   8.253  0.358E-01  0.179E-01  0.179E-01
   8.255  0.534E-01  0.267E-01  0.267E-01
   8.257  0.151E-01  0.753E-02  0.753E-02
   8.259  0.578E-03  0.289E-03  0.289E-03
   8.261  0.300E-05  0.150E-05  0.150E-05
   8.263  0.211E-08  0.105E-08  0.105E-08
   8.265  0.200E-12  0.100E-12  0.100E-12
   8.267  0.451E-14  0.225E-14  0.225E-14
   8.269  0.996E-10  0.498E-10  0.498E-10
   8.271  0.302E-06  0.151E-06  0.151E-06
   8.273  0.125E-03  0.626E-04  0.626E-04
   8.275  0.709E-02  0.355E-02  0.355E-02
   8.277  0.549E-01  0.274E-01  0.274E-01
   8.279  0.580E-01  0.290E-01  0.290E-01
   8.281  0.102E-01  0.512E-02  0.512E-02
   8.283  0.372E-01  0.186E-01  0.186E-01
   8.285  0.989E-01  0.494E-01  0.494E-01
   8.287  0.363E-01  0.182E-01  0.182E-01
   8.289  0.184E-02  0.919E-03  0.919E-03
   8.291  0.201E-03  0.101E-03  0.101E-03
   8.293  0.758E-02  0.379E-02  0.379E-02
   8.295  0.412E-01  0.206E-01  0.206E-01
   8.297  0.303E-01  0.151E-01  0.151E-01
   8.299  0.317E-02  0.159E-02  0.159E-02
   8.301  0.532E-02  0.266E-02  0.266E-02
   8.303  0.239E-01  0.120E-01  0.120E-01
   8.305  0.206E-01  0.103E-01  0.103E-01
   8.307  0.377E-01  0.189E-01  0.189E-01
   8.309  0.707E-01  0.354E-01  0.354E-01
   8.311  0.470E-01  0.235E-01  0.235E-01
   8.313  0.620E-02  0.310E-02  0.310E-02
   8.315  0.595E-03  0.297E-03  0.297E-03
   8.317  0.126E-01  0.631E-02  0.631E-02
   8.319  0.483E-01  0.242E-01  0.242E-01
   8.321  0.250E-01  0.125E-01  0.125E-01
   8.323  0.176E-02  0.878E-03  0.878E-03
   8.325  0.265E-03  0.132E-03  0.132E-03
   8.327  0.678E-02  0.339E-02  0.339E-02
   8.329  0.251E-01  0.125E-01  0.125E-01
   8.331  0.133E-01  0.666E-02  0.666E-02
   8.333  0.166E-01  0.830E-02  0.830E-02
   8.335  0.435E-01  0.218E-01  0.218E-01
   8.337  0.222E-01  0.111E-01  0.111E-01
   8.339  0.308E-01  0.154E-01  0.154E-01
   8.341  0.316E-01  0.158E-01  0.158E-01
   8.343  0.419E-01  0.210E-01  0.210E-01
   8.345  0.772E-01  0.386E-01  0.386E-01
   8.347  0.353E-01  0.177E-01  0.177E-01
   8.349  0.311E-02  0.156E-02  0.156E-02
   8.351  0.432E-04  0.216E-04  0.216E-04
   8.353  0.281E-03  0.141E-03  0.141E-03
   8.355  0.957E-02  0.478E-02  0.478E-02
   8.357  0.440E-01  0.220E-01  0.220E-01
   8.359  0.275E-01  0.137E-01  0.137E-01
   8.361  0.317E-02  0.158E-02  0.158E-02
   8.363  0.505E-02  0.253E-02  0.253E-02
   8.365  0.801E-02  0.400E-02  0.400E-02
   8.367  0.204E-01  0.102E-01  0.102E-01
   8.369  0.226E-01  0.113E-01  0.113E-01
   8.371  0.363E-02  0.181E-02  0.181E-02
   8.373  0.789E-04  0.394E-04  0.394E-04
   8.375  0.177E-05  0.886E-06  0.886E-06
   8.377  0.340E-03  0.170E-03  0.170E-03
   8.379  0.101E-01  0.507E-02  0.507E-02
   8.381  0.413E-01  0.206E-01  0.206E-01
   8.383  0.307E-01  0.153E-01  0.153E-01
   8.385  0.464E-01  0.232E-01  0.232E-01
   8.387  0.550E-01  0.275E-01  0.275E-01
   8.389  0.191E-01  0.954E-02  0.954E-02
   8.391  0.147E-02  0.733E-03  0.733E-03
   8.393  0.535E-02  0.267E-02  0.267E-02
   8.395  0.324E-01  0.162E-01  0.162E-01
   8.397  0.328E-01  0.164E-01  0.164E-01
   8.399  0.419E-01  0.209E-01  0.209E-01
   8.401  0.332E-01  0.166E-01  0.166E-01
   8.403  0.493E-02  0.247E-02  0.247E-02
   8.405  0.991E-02  0.496E-02  0.496E-02
   8.407  0.296E-01  0.148E-01  0.148E-01
   8.409  0.121E-01  0.606E-02  0.606E-02
   8.411  0.116E-02  0.579E-03  0.579E-03
   8.413  0.112E-02  0.562E-03  0.562E-03
   8.415  0.370E-03  0.185E-03  0.185E-03
   8.417  0.131E-02  0.655E-03  0.655E-03
   8.419  0.189E-01  0.946E-02  0.946E-02
   8.421  0.378E-01  0.189E-01  0.189E-01
   8.423  0.103E-01  0.513E-02  0.513E-02
   8.425  0.395E-03  0.197E-03  0.197E-03
   8.427  0.852E-04  0.426E-04  0.426E-04
   8.429  0.213E-02  0.106E-02  0.106E-02
   8.431  0.176E-01  0.881E-02  0.881E-02
   8.433  0.227E-01  0.113E-01  0.113E-01
   8.435  0.278E-01  0.139E-01  0.139E-01
   8.437  0.434E-01  0.217E-01  0.217E-01
   8.439  0.362E-01  0.181E-01  0.181E-01
   8.441  0.993E-02  0.497E-02  0.497E-02
   8.443  0.126E-01  0.632E-02  0.632E-02
   8.445  0.609E-01  0.305E-01  0.305E-01
   8.447  0.516E-01  0.258E-01  0.258E-01
   8.449  0.716E-02  0.358E-02  0.358E-02
   8.451  0.152E-03  0.760E-04  0.760E-04
   8.453  0.476E-04  0.238E-04  0.238E-04
   8.455  0.288E-03  0.144E-03  0.144E-03
   8.457  0.430E-03  0.215E-03  0.215E-03
   8.459  0.674E-02  0.337E-02  0.337E-02
   8.461  0.315E-01  0.157E-01  0.157E-01
   8.463  0.200E-01  0.999E-02  0.999E-02
   8.465  0.291E-02  0.146E-02  0.146E-02
   8.467  0.169E-01  0.843E-02  0.843E-02
   8.469  0.322E-01  0.161E-01  0.161E-01
   8.471  0.868E-02  0.434E-02  0.434E-02
   8.473  0.396E-03  0.198E-03  0.198E-03
   8.475  0.489E-05  0.245E-05  0.245E-05
   8.477  0.133E-04  0.664E-05  0.664E-05
   8.479  0.132E-02  0.659E-03  0.659E-03
   8.481  0.178E-01  0.892E-02  0.892E-02
   8.483  0.373E-01  0.187E-01  0.187E-01
   8.485  0.344E-01  0.172E-01  0.172E-01
   8.487  0.193E-01  0.964E-02  0.964E-02
   8.489  0.245E-02  0.123E-02  0.123E-02
   8.491  0.616E-02  0.308E-02  0.308E-02
   8.493  0.274E-01  0.137E-01  0.137E-01
   8.495  0.297E-01  0.149E-01  0.149E-01
   8.497  0.439E-01  0.219E-01  0.219E-01
   8.499  0.349E-01  0.175E-01  0.175E-01
   8.501  0.221E-01  0.111E-01  0.111E-01
   8.503  0.299E-01  0.150E-01  0.150E-01
   8.505  0.126E-01  0.629E-02  0.629E-02
   8.507  0.142E-02  0.709E-03  0.709E-03
   8.509  0.702E-03  0.351E-03  0.351E-03
   8.511  0.952E-04  0.476E-04  0.476E-04
   8.513  0.176E-05  0.881E-06  0.881E-06
   8.515  0.441E-08  0.221E-08  0.221E-08
   8.517  0.150E-11  0.748E-12  0.748E-12
   8.519  0.919E-13  0.459E-13  0.459E-13
   8.521  0.104E-08  0.518E-09  0.518E-09
   8.523  0.158E-05  0.792E-06  0.792E-06
   8.525  0.328E-03  0.164E-03  0.164E-03
   8.527  0.921E-02  0.461E-02  0.461E-02
   8.529  0.357E-01  0.178E-01  0.178E-01
   8.531  0.268E-01  0.134E-01  0.134E-01
   8.533  0.257E-01  0.128E-01  0.128E-01
   8.535  0.102E-01  0.511E-02  0.511E-02
   8.537  0.477E-02  0.239E-02  0.239E-02
   8.539  0.213E-01  0.106E-01  0.106E-01
   8.541  0.159E-01  0.794E-02  0.794E-02
   8.543  0.235E-01  0.117E-01  0.117E-01
   8.545  0.588E-01  0.294E-01  0.294E-01
   8.547  0.243E-01  0.122E-01  0.122E-01
   8.549  0.377E-02  0.189E-02  0.189E-02
   8.551  0.246E-01  0.123E-01  0.123E-01
   8.553  0.538E-01  0.269E-01  0.269E-01
   8.555  0.411E-01  0.205E-01  0.205E-01
   8.557  0.832E-02  0.416E-02  0.416E-02
   8.559  0.408E-03  0.204E-03  0.204E-03
   8.561  0.141E-04  0.704E-05  0.704E-05
   8.563  0.975E-04  0.487E-04  0.487E-04
   8.565  0.265E-03  0.132E-03  0.132E-03
   8.567  0.109E-02  0.546E-03  0.546E-03
   8.569  0.113E-01  0.563E-02  0.563E-02
   8.571  0.173E-01  0.865E-02  0.865E-02
   8.573  0.395E-02  0.198E-02  0.198E-02
   8.575  0.365E-02  0.183E-02  0.183E-02
   8.577  0.172E-01  0.862E-02  0.862E-02
   8.579  0.129E-01  0.643E-02  0.643E-02
   8.581  0.104E-01  0.522E-02  0.522E-02
   8.583  0.296E-01  0.148E-01  0.148E-01
   8.585  0.258E-01  0.129E-01  0.129E-01
   8.587  0.544E-02  0.272E-02  0.272E-02
   8.589  0.189E-03  0.944E-04  0.944E-04
   8.591  0.160E-05  0.801E-06  0.801E-06
   8.593  0.447E-04  0.223E-04  0.223E-04
   8.595  0.432E-03  0.216E-03  0.216E-03
   8.597  0.659E-03  0.330E-03  0.330E-03
   8.599  0.207E-03  0.103E-03  0.103E-03
   8.601  0.149E-04  0.745E-05  0.745E-05
   8.603  0.438E-05  0.219E-05  0.219E-05
   8.605  0.659E-03  0.329E-03  0.329E-03
   8.607  0.141E-01  0.704E-02  0.704E-02
   8.609  0.431E-01  0.215E-01  0.215E-01
   8.611  0.385E-01  0.193E-01  0.193E-01
   8.613  0.392E-01  0.196E-01  0.196E-01
   8.615  0.467E-01  0.233E-01  0.233E-01
   8.617  0.359E-01  0.180E-01  0.180E-01
   8.619  0.379E-01  0.190E-01  0.190E-01
   8.621  0.634E-01  0.317E-01  0.317E-01
   8.623  0.346E-01  0.173E-01  0.173E-01
   8.625  0.495E-02  0.248E-02  0.248E-02
   8.627  0.621E-03  0.311E-03  0.311E-03
   8.629  0.974E-03  0.487E-03  0.487E-03
   8.631  0.718E-03  0.359E-03  0.359E-03
   8.633  0.802E-04  0.401E-04  0.401E-04
   8.635  0.156E-03  0.778E-04  0.778E-04
   8.637  0.106E-02  0.531E-03  0.531E-03
   8.639  0.169E-02  0.844E-03  0.844E-03
   8.641  0.150E-02  0.749E-03  0.749E-03
   8.643  0.652E-02  0.326E-02  0.326E-02
   8.645  0.171E-01  0.855E-02  0.855E-02
   8.647  0.939E-02  0.469E-02  0.469E-02
   8.649  0.221E-02  0.111E-02  0.111E-02
   8.651  0.201E-02  0.101E-02  0.101E-02
   8.653  0.116E-01  0.578E-02  0.578E-02
   8.655  0.220E-01  0.110E-01  0.110E-01
   8.657  0.165E-01  0.827E-02  0.827E-02
   8.659  0.387E-02  0.194E-02  0.194E-02
   8.661  0.564E-03  0.282E-03  0.282E-03
   8.663  0.221E-03  0.111E-03  0.111E-03
   8.665  0.255E-04  0.127E-04  0.127E-04
   8.667  0.950E-04  0.475E-04  0.475E-04
   8.669  0.100E-02  0.502E-03  0.502E-03
   8.671  0.208E-02  0.104E-02  0.104E-02
   8.673  0.171E-01  0.853E-02  0.853E-02
   8.675  0.835E-01  0.418E-01  0.418E-01
   8.677  0.107E+00  0.537E-01  0.537E-01
   8.679  0.634E-01  0.317E-01  0.317E-01
   8.681  0.196E-01  0.982E-02  0.982E-02
   8.683  0.198E-01  0.992E-02  0.992E-02
   8.685  0.120E-01  0.601E-02  0.601E-02
   8.687  0.135E-02  0.677E-03  0.677E-03
   8.689  0.252E-04  0.126E-04  0.126E-04
   8.691  0.420E-05  0.210E-05  0.210E-05
   8.693  0.133E-03  0.665E-04  0.665E-04
   8.695  0.135E-02  0.673E-03  0.673E-03
   8.697  0.248E-02  0.124E-02  0.124E-02
   8.699  0.235E-02  0.117E-02  0.117E-02
   8.701  0.115E-02  0.575E-03  0.575E-03
   8.703  0.414E-02  0.207E-02  0.207E-02
   8.705  0.771E-02  0.385E-02  0.385E-02
   8.707  0.223E-02  0.111E-02  0.111E-02
   8.709  0.953E-04  0.476E-04  0.476E-04
   8.711  0.160E-04  0.800E-05  0.800E-05
   8.713  0.505E-03  0.252E-03  0.252E-03
   8.715  0.277E-02  0.138E-02  0.138E-02
   8.717  0.499E-02  0.249E-02  0.249E-02
   8.719  0.432E-02  0.216E-02  0.216E-02
   8.721  0.119E-01  0.593E-02  0.593E-02
   8.723  0.759E-01  0.379E-01  0.379E-01
   8.725  0.143E+00  0.714E-01  0.714E-01
   8.727  0.469E-01  0.235E-01  0.235E-01
   8.729  0.240E-02  0.120E-02  0.120E-02
   8.731  0.641E-03  0.320E-03  0.320E-03
   8.733  0.239E-02  0.119E-02  0.119E-02
   8.735  0.124E-02  0.621E-03  0.621E-03
   8.737  0.267E-03  0.134E-03  0.134E-03
   8.739  0.171E-02  0.855E-03  0.855E-03
   8.741  0.220E-02  0.110E-02  0.110E-02
   8.743  0.109E-02  0.543E-03  0.543E-03
   8.745  0.109E-01  0.546E-02  0.546E-02
   8.747  0.229E-01  0.114E-01  0.114E-01
   8.749  0.669E-02  0.335E-02  0.335E-02
   8.751  0.238E-02  0.119E-02  0.119E-02
   8.753  0.250E-01  0.125E-01  0.125E-01
   8.755  0.128E+00  0.642E-01  0.642E-01
   8.757  0.101E+00  0.505E-01  0.505E-01
   8.759  0.115E-01  0.577E-02  0.577E-02
   8.761  0.365E-02  0.183E-02  0.183E-02
   8.763  0.952E-02  0.476E-02  0.476E-02
   8.765  0.606E-01  0.303E-01  0.303E-01
   8.767  0.942E-01  0.471E-01  0.471E-01
   8.769  0.205E-01  0.103E-01  0.103E-01
   8.771  0.117E-02  0.584E-03  0.584E-03
   8.773  0.266E-02  0.133E-02  0.133E-02
   8.775  0.177E-02  0.886E-03  0.886E-03
   8.777  0.417E-03  0.208E-03  0.208E-03
   8.779  0.131E-03  0.653E-04  0.653E-04
   8.781  0.834E-05  0.417E-05  0.417E-05
   8.783  0.234E-06  0.117E-06  0.117E-06
   8.785  0.312E-04  0.156E-04  0.156E-04
   8.787  0.815E-03  0.407E-03  0.407E-03
   8.789  0.288E-02  0.144E-02  0.144E-02
   8.791  0.139E-02  0.694E-03  0.694E-03
   8.793  0.456E-03  0.228E-03  0.228E-03
   8.795  0.246E-02  0.123E-02  0.123E-02
   8.797  0.223E-02  0.111E-02  0.111E-02
   8.799  0.275E-03  0.138E-03  0.138E-03
   8.801  0.249E-03  0.125E-03  0.125E-03
   8.803  0.520E-02  0.260E-02  0.260E-02
   8.805  0.150E-01  0.750E-02  0.750E-02
   8.807  0.586E-02  0.293E-02  0.293E-02
   8.809  0.311E-03  0.155E-03  0.155E-03
   8.811  0.218E-04  0.109E-04  0.109E-04
   8.813  0.644E-03  0.322E-03  0.322E-03
   8.815  0.287E-02  0.144E-02  0.144E-02
   8.817  0.235E-02  0.118E-02  0.118E-02
   8.819  0.701E-02  0.351E-02  0.351E-02
   8.821  0.202E-01  0.101E-01  0.101E-01
   8.823  0.111E-01  0.554E-02  0.554E-02
   8.825  0.881E-03  0.441E-03  0.441E-03
   8.827  0.961E-05  0.480E-05  0.480E-05
   8.829  0.563E-07  0.282E-07  0.282E-07
   8.831  0.519E-05  0.259E-05  0.259E-05
   8.833  0.865E-04  0.433E-04  0.433E-04
   8.835  0.195E-03  0.976E-04  0.976E-04
   8.837  0.608E-04  0.304E-04  0.304E-04
   8.839  0.117E-03  0.584E-04  0.584E-04
   8.841  0.166E-02  0.828E-03  0.828E-03
   8.843  0.433E-02  0.217E-02  0.217E-02
   8.845  0.379E-02  0.190E-02  0.190E-02
   8.847  0.101E-02  0.507E-03  0.507E-03
   8.849  0.175E-02  0.877E-03  0.877E-03
   8.851  0.470E-02  0.235E-02  0.235E-02
   8.853  0.174E-02  0.870E-03  0.870E-03
   8.855  0.872E-04  0.436E-04  0.436E-04
   8.857  0.591E-06  0.295E-06  0.295E-06
   8.859  0.107E-08  0.534E-09  0.534E-09
   8.861  0.232E-06  0.116E-06  0.116E-06
   8.863  0.139E-04  0.695E-05  0.695E-05
   8.865  0.115E-03  0.577E-04  0.577E-04
   8.867  0.375E-03  0.187E-03  0.187E-03
   8.869  0.312E-02  0.156E-02  0.156E-02
   8.871  0.557E-02  0.279E-02  0.279E-02
   8.873  0.146E-02  0.730E-03  0.730E-03
   8.875  0.554E-04  0.277E-04  0.277E-04
   8.877  0.300E-06  0.150E-06  0.150E-06
   8.879  0.229E-09  0.114E-09  0.114E-09
   8.881  0.354E-11  0.177E-11  0.177E-11
   8.883  0.139E-07  0.695E-08  0.695E-08
   8.885  0.743E-05  0.372E-05  0.372E-05
   8.887  0.538E-03  0.269E-03  0.269E-03
   8.889  0.527E-02  0.264E-02  0.264E-02
   8.891  0.699E-02  0.349E-02  0.349E-02
   8.893  0.127E-02  0.637E-03  0.637E-03
   8.895  0.859E-03  0.429E-03  0.429E-03
   8.897  0.577E-02  0.289E-02  0.289E-02
   8.899  0.130E-01  0.652E-02  0.652E-02
   8.901  0.187E-01  0.934E-02  0.934E-02
   8.903  0.739E-02  0.369E-02  0.369E-02
   8.905  0.455E-03  0.227E-03  0.227E-03
   8.907  0.388E-05  0.194E-05  0.194E-05
   8.909  0.451E-08  0.225E-08  0.225E-08
   8.911  0.708E-12  0.354E-12  0.354E-12
   8.913  0.167E-15  0.835E-16  0.835E-16
   8.915  0.343E-11  0.171E-11  0.171E-11
   8.917  0.105E-07  0.526E-08  0.526E-08
   8.919  0.444E-05  0.222E-05  0.222E-05
   8.921  0.266E-03  0.133E-03  0.133E-03
   8.923  0.248E-02  0.124E-02  0.124E-02
   8.925  0.413E-02  0.206E-02  0.206E-02
   8.927  0.131E-02  0.655E-03  0.655E-03
   8.929  0.710E-04  0.355E-04  0.355E-04
   8.931  0.104E-04  0.522E-05  0.522E-05
   8.933  0.552E-04  0.276E-04  0.276E-04
   8.935  0.418E-04  0.209E-04  0.209E-04
   8.937  0.429E-05  0.215E-05  0.215E-05
   8.939  0.595E-07  0.298E-07  0.298E-07
   8.941  0.146E-09  0.730E-10  0.730E-10
   8.943  0.603E-07  0.302E-07  0.302E-07
   8.945  0.154E-04  0.772E-05  0.772E-05
   8.947  0.648E-03  0.324E-03  0.324E-03
   8.949  0.524E-02  0.262E-02  0.262E-02
   8.951  0.818E-02  0.409E-02  0.409E-02
   8.953  0.209E-02  0.105E-02  0.105E-02
   8.955  0.779E-04  0.389E-04  0.389E-04
   8.957  0.402E-06  0.201E-06  0.201E-06
   8.959  0.285E-09  0.142E-09  0.142E-09
   8.961  0.567E-13  0.284E-13  0.284E-13
   8.963  0.960E-10  0.480E-10  0.480E-10
   8.965  0.430E-07  0.215E-07  0.215E-07
   8.967  0.298E-05  0.149E-05  0.149E-05
   8.969  0.693E-04  0.346E-04  0.346E-04
   8.971  0.844E-03  0.422E-03  0.422E-03
   8.973  0.239E-02  0.119E-02  0.119E-02
   8.975  0.165E-02  0.827E-03  0.827E-03
   8.977  0.356E-02  0.178E-02  0.178E-02
   8.979  0.509E-02  0.254E-02  0.254E-02
   8.981  0.106E-02  0.528E-03  0.528E-03
   8.983  0.164E-02  0.821E-03  0.821E-03
   8.985  0.994E-02  0.497E-02  0.497E-02
   8.987  0.829E-02  0.414E-02  0.414E-02
   8.989  0.980E-03  0.490E-03  0.490E-03
   8.991  0.683E-03  0.341E-03  0.341E-03
   8.993  0.157E-02  0.785E-03  0.785E-03
   8.995  0.599E-03  0.300E-03  0.300E-03
   8.997  0.362E-04  0.181E-04  0.181E-04
   8.999  0.299E-05  0.150E-05  0.150E-05
   9.001  0.249E-03  0.125E-03  0.125E-03
   9.003  0.315E-02  0.158E-02  0.158E-02
   9.005  0.549E-02  0.274E-02  0.274E-02
   9.007  0.187E-02  0.937E-03  0.937E-03
   9.009  0.633E-03  0.317E-03  0.317E-03
   9.011  0.806E-04  0.403E-04  0.403E-04
   9.013  0.324E-05  0.162E-05  0.162E-05
   9.015  0.495E-04  0.248E-04  0.248E-04
   9.017  0.196E-03  0.980E-04  0.980E-04
   9.019  0.105E-03  0.527E-04  0.527E-04
   9.021  0.771E-05  0.385E-05  0.385E-05
   9.023  0.765E-07  0.382E-07  0.382E-07
   9.025  0.103E-09  0.515E-10  0.515E-10
   9.027  0.189E-13  0.944E-14  0.944E-14
   9.029  0.469E-18  0.235E-18  0.235E-18
   9.031  0.596E-22  0.298E-22  0.298E-22
   9.033  0.614E-22  0.307E-22  0.307E-22
   9.035  0.909E-23  0.455E-23  0.455E-23
   9.037  0.779E-19  0.389E-19  0.389E-19
   9.039  0.163E-14  0.813E-15  0.813E-15
   9.041  0.460E-11  0.230E-11  0.230E-11
   9.043  0.176E-08  0.880E-09  0.880E-09
   9.045  0.912E-07  0.456E-07  0.456E-07
   9.047  0.639E-06  0.319E-06  0.319E-06
   9.049  0.606E-06  0.303E-06  0.303E-06
   9.051  0.778E-07  0.389E-07  0.389E-07
   9.053  0.191E-08  0.957E-09  0.957E-09
   9.055  0.639E-06  0.320E-06  0.320E-06
   9.057  0.984E-04  0.492E-04  0.492E-04
   9.059  0.205E-02  0.103E-02  0.103E-02
   9.061  0.578E-02  0.289E-02  0.289E-02
   9.063  0.221E-02  0.110E-02  0.110E-02
   9.065  0.349E-03  0.174E-03  0.174E-03
   9.067  0.231E-02  0.116E-02  0.116E-02
   9.069  0.308E-02  0.154E-02  0.154E-02
   9.071  0.827E-03  0.414E-03  0.414E-03
   9.073  0.407E-02  0.204E-02  0.204E-02
   9.075  0.816E-02  0.408E-02  0.408E-02
   9.077  0.222E-02  0.111E-02  0.111E-02
   9.079  0.817E-04  0.408E-04  0.408E-04
   9.081  0.407E-06  0.204E-06  0.204E-06
   9.083  0.985E-09  0.492E-09  0.492E-09
   9.085  0.156E-06  0.780E-07  0.780E-07
   9.087  0.464E-05  0.232E-05  0.232E-05
   9.089  0.187E-04  0.933E-05  0.933E-05
   9.091  0.102E-04  0.508E-05  0.508E-05
   9.093  0.749E-06  0.375E-06  0.375E-06
   9.095  0.747E-08  0.374E-08  0.374E-08
   9.097  0.101E-10  0.504E-11  0.504E-11
   9.099  0.184E-14  0.921E-15  0.921E-15
   9.101  0.462E-19  0.231E-19  0.231E-19
   9.103  0.389E-21  0.194E-21  0.194E-21
   9.105  0.409E-22  0.205E-22  0.205E-22
   9.107  0.722E-24  0.361E-24  0.361E-24
   9.109  0.362E-15  0.181E-15  0.181E-15
   9.111  0.817E-11  0.408E-11  0.408E-11
   9.113  0.249E-07  0.125E-07  0.125E-07
   9.115  0.103E-04  0.516E-05  0.516E-05
   9.117  0.577E-03  0.288E-03  0.288E-03
   9.119  0.437E-02  0.218E-02  0.218E-02
   9.121  0.447E-02  0.224E-02  0.224E-02
   9.123  0.621E-03  0.310E-03  0.310E-03
   9.125  0.116E-04  0.582E-05  0.582E-05
   9.127  0.680E-07  0.340E-07  0.340E-07
   9.129  0.334E-05  0.167E-05  0.167E-05
   9.131  0.392E-04  0.196E-04  0.196E-04
   9.133  0.622E-04  0.311E-04  0.311E-04
   9.135  0.134E-04  0.668E-05  0.668E-05
   9.137  0.389E-06  0.194E-06  0.194E-06
   9.139  0.153E-08  0.766E-09  0.766E-09
   9.141  0.816E-12  0.408E-12  0.408E-12
   9.143  0.589E-16  0.294E-16  0.294E-16
   9.145  0.219E-20  0.109E-20  0.109E-20
   9.147  0.181E-15  0.905E-16  0.905E-16
   9.149  0.377E-11  0.189E-11  0.189E-11
   9.151  0.106E-07  0.531E-08  0.531E-08
   9.153  0.405E-05  0.203E-05  0.203E-05
   9.155  0.209E-03  0.105E-03  0.105E-03
   9.157  0.146E-02  0.731E-03  0.731E-03
   9.159  0.138E-02  0.691E-03  0.691E-03
   9.161  0.178E-03  0.891E-04  0.891E-04
   9.163  0.160E-03  0.798E-04  0.798E-04
   9.165  0.246E-02  0.123E-02  0.123E-02
   9.167  0.525E-02  0.263E-02  0.263E-02
   9.169  0.151E-02  0.757E-03  0.757E-03
   9.171  0.591E-04  0.296E-04  0.296E-04
   9.173  0.266E-05  0.133E-05  0.133E-05
   9.175  0.515E-04  0.257E-04  0.257E-04
   9.177  0.242E-03  0.121E-03  0.121E-03
   9.179  0.197E-02  0.986E-03  0.986E-03
   9.181  0.533E-02  0.267E-02  0.267E-02
   9.183  0.201E-02  0.100E-02  0.100E-02
   9.185  0.102E-03  0.512E-04  0.512E-04
   9.187  0.707E-06  0.354E-06  0.354E-06
   9.189  0.661E-09  0.330E-09  0.330E-09
   9.191  0.836E-13  0.418E-13  0.418E-13
   9.193  0.143E-17  0.715E-18  0.715E-18
   9.195  0.364E-25  0.182E-25  0.182E-25
   9.197  0.262E-23  0.131E-23  0.131E-23
   9.199  0.255E-22  0.128E-22  0.128E-22
   9.201  0.336E-22  0.168E-22  0.168E-22
   9.203  0.728E-23  0.364E-23  0.364E-23
   9.205  0.194E-22  0.968E-23  0.968E-23
   9.207  0.388E-22  0.194E-22  0.194E-22
   9.209  0.106E-22  0.531E-23  0.531E-23
   9.211  0.334E-19  0.167E-19  0.167E-19
   9.213  0.222E-14  0.111E-14  0.111E-14
   9.215  0.200E-10  0.100E-10  0.100E-10
   9.217  0.244E-07  0.122E-07  0.122E-07
   9.219  0.402E-05  0.201E-05  0.201E-05
   9.221  0.897E-04  0.449E-04  0.449E-04
   9.223  0.271E-03  0.136E-03  0.136E-03
   9.225  0.111E-03  0.554E-04  0.554E-04
   9.227  0.613E-05  0.306E-05  0.306E-05
   9.229  0.459E-07  0.229E-07  0.229E-07
   9.231  0.465E-10  0.232E-10  0.232E-10
   9.233  0.109E-12  0.544E-13  0.544E-13
   9.235  0.761E-09  0.380E-09  0.380E-09
   9.237  0.766E-06  0.383E-06  0.383E-06
   9.239  0.105E-03  0.525E-04  0.525E-04
   9.241  0.198E-02  0.990E-03  0.990E-03
   9.243  0.527E-02  0.264E-02  0.264E-02
   9.245  0.209E-02  0.104E-02  0.104E-02
   9.247  0.133E-03  0.667E-04  0.667E-04
   9.249  0.146E-05  0.729E-06  0.729E-06
   9.251  0.267E-08  0.133E-08  0.133E-08
   9.253  0.527E-07  0.263E-07  0.263E-07
   9.255  0.142E-04  0.711E-05  0.711E-05
   9.257  0.519E-03  0.260E-03  0.260E-03
   9.259  0.257E-02  0.128E-02  0.128E-02
   9.261  0.172E-02  0.859E-03  0.859E-03
   9.263  0.156E-03  0.778E-04  0.778E-04
   9.265  0.226E-05  0.113E-05  0.113E-05
   9.267  0.270E-04  0.135E-04  0.135E-04
   9.269  0.280E-03  0.140E-03  0.140E-03
   9.271  0.394E-03  0.197E-03  0.197E-03
   9.273  0.748E-04  0.374E-04  0.374E-04
   9.275  0.192E-05  0.962E-06  0.962E-06
   9.277  0.669E-08  0.335E-08  0.335E-08
   9.279  0.315E-11  0.158E-11  0.158E-11
   9.281  0.201E-15  0.100E-15  0.100E-15
   9.283  0.173E-20  0.867E-21  0.867E-21
   9.285  0.000E+00  0.000E+00  0.000E+00
   9.287  0.139E-35  0.695E-36  0.695E-36
   9.289  0.466E-31  0.233E-31  0.233E-31
   9.291  0.907E-19  0.453E-19  0.453E-19
   9.293  0.791E-14  0.396E-14  0.396E-14
   9.295  0.934E-10  0.467E-10  0.467E-10
   9.297  0.149E-06  0.747E-07  0.747E-07
   9.299  0.323E-04  0.162E-04  0.162E-04
   9.301  0.946E-03  0.473E-03  0.473E-03
   9.303  0.375E-02  0.187E-02  0.187E-02
   9.305  0.201E-02  0.100E-02  0.100E-02
   9.307  0.146E-03  0.729E-04  0.729E-04
   9.309  0.143E-05  0.716E-06  0.716E-06
   9.311  0.259E-08  0.129E-08  0.129E-08
   9.313  0.421E-06  0.210E-06  0.210E-06
   9.315  0.350E-04  0.175E-04  0.175E-04
   9.317  0.396E-03  0.198E-03  0.198E-03
   9.319  0.646E-03  0.323E-03  0.323E-03
   9.321  0.229E-03  0.115E-03  0.115E-03
   9.323  0.354E-04  0.177E-04  0.177E-04
   9.325  0.132E-05  0.661E-06  0.661E-06
   9.327  0.726E-08  0.363E-08  0.363E-08
   9.329  0.544E-11  0.272E-11  0.272E-11
   9.331  0.552E-15  0.276E-15  0.276E-15
   9.333  0.767E-20  0.384E-20  0.384E-20
   9.335  0.131E-20  0.657E-21  0.657E-21
   9.337  0.130E-15  0.648E-16  0.648E-16
   9.339  0.254E-11  0.127E-11  0.127E-11
   9.341  0.673E-08  0.337E-08  0.337E-08
   9.343  0.242E-05  0.121E-05  0.121E-05
   9.345  0.117E-03  0.586E-04  0.586E-04
   9.347  0.771E-03  0.385E-03  0.385E-03
   9.349  0.686E-03  0.343E-03  0.343E-03
   9.351  0.825E-04  0.413E-04  0.413E-04
   9.353  0.323E-05  0.161E-05  0.161E-05
   9.355  0.155E-03  0.777E-04  0.777E-04
   9.357  0.173E-02  0.867E-03  0.867E-03
   9.359  0.262E-02  0.131E-02  0.131E-02
   9.361  0.536E-03  0.268E-03  0.268E-03
   9.363  0.449E-04  0.225E-04  0.225E-04
   9.365  0.443E-03  0.221E-03  0.221E-03
   9.367  0.880E-03  0.440E-03  0.440E-03
   9.369  0.237E-03  0.119E-03  0.119E-03
   9.371  0.864E-05  0.432E-05  0.432E-05
   9.373  0.426E-07  0.213E-07  0.213E-07
   9.375  0.329E-10  0.164E-10  0.164E-10
   9.377  0.242E-08  0.121E-08  0.121E-08
   9.379  0.179E-06  0.893E-07  0.893E-07
   9.381  0.179E-05  0.894E-06  0.894E-06
   9.383  0.242E-05  0.121E-05  0.121E-05
   9.385  0.444E-06  0.222E-06  0.222E-06
   9.387  0.110E-07  0.551E-08  0.551E-08
   9.389  0.370E-10  0.185E-10  0.185E-10
   9.391  0.168E-13  0.842E-14  0.842E-14
   9.393  0.532E-13  0.266E-13  0.266E-13
   9.395  0.370E-09  0.185E-09  0.185E-09
   9.397  0.348E-06  0.174E-06  0.174E-06
   9.399  0.443E-04  0.221E-04  0.221E-04
   9.401  0.762E-03  0.381E-03  0.381E-03
   9.403  0.178E-02  0.888E-03  0.888E-03
   9.405  0.560E-03  0.280E-03  0.280E-03
   9.407  0.239E-04  0.120E-04  0.120E-04
   9.409  0.403E-05  0.201E-05  0.201E-05
   9.411  0.170E-03  0.848E-04  0.848E-04
   9.413  0.100E-02  0.501E-03  0.501E-03
   9.415  0.801E-03  0.400E-03  0.400E-03
   9.417  0.904E-04  0.452E-04  0.452E-04
   9.419  0.289E-04  0.145E-04  0.145E-04
   9.421  0.314E-04  0.157E-04  0.157E-04
   9.423  0.390E-04  0.195E-04  0.195E-04
   9.425  0.428E-04  0.214E-04  0.214E-04
   9.427  0.710E-05  0.355E-05  0.355E-05
   9.429  0.161E-04  0.805E-05  0.805E-05
   9.431  0.317E-03  0.159E-03  0.159E-03
   9.433  0.853E-03  0.427E-03  0.427E-03
   9.435  0.311E-03  0.155E-03  0.155E-03
   9.437  0.153E-04  0.765E-05  0.765E-05
   9.439  0.102E-06  0.510E-07  0.510E-07
   9.441  0.354E-08  0.177E-08  0.177E-08
   9.443  0.547E-06  0.273E-06  0.273E-06
   9.445  0.140E-04  0.698E-05  0.698E-05
   9.447  0.996E-04  0.498E-04  0.498E-04
   9.449  0.232E-03  0.116E-03  0.116E-03
   9.451  0.975E-04  0.487E-04  0.487E-04
   9.453  0.656E-04  0.328E-04  0.328E-04
   9.455  0.787E-03  0.393E-03  0.393E-03
   9.457  0.162E-02  0.809E-03  0.809E-03
   9.459  0.826E-03  0.413E-03  0.413E-03
   9.461  0.169E-03  0.847E-04  0.847E-04
   9.463  0.117E-03  0.587E-04  0.587E-04
   9.465  0.453E-03  0.226E-03  0.226E-03
   9.467  0.509E-03  0.254E-03  0.254E-03
   9.469  0.541E-03  0.270E-03  0.270E-03
   9.471  0.135E-03  0.675E-04  0.675E-04
   9.473  0.470E-05  0.235E-05  0.235E-05
   9.475  0.230E-07  0.115E-07  0.115E-07
   9.477  0.530E-06  0.265E-06  0.265E-06
   9.479  0.443E-04  0.221E-04  0.221E-04
   9.481  0.500E-03  0.250E-03  0.250E-03
   9.483  0.767E-03  0.383E-03  0.383E-03
   9.485  0.297E-03  0.148E-03  0.148E-03
   9.487  0.105E-02  0.525E-03  0.525E-03
   9.489  0.107E-02  0.533E-03  0.533E-03
   9.491  0.164E-03  0.822E-04  0.822E-04
   9.493  0.358E-03  0.179E-03  0.179E-03
   9.495  0.990E-03  0.495E-03  0.495E-03
   9.497  0.495E-03  0.247E-03  0.247E-03
   9.499  0.921E-03  0.460E-03  0.460E-03
   9.501  0.891E-03  0.446E-03  0.446E-03
   9.503  0.119E-03  0.596E-04  0.596E-04
   9.505  0.216E-05  0.108E-05  0.108E-05
   9.507  0.528E-08  0.264E-08  0.264E-08
   9.509  0.175E-11  0.874E-12  0.874E-12
   9.511  0.784E-16  0.392E-16  0.392E-16
   9.513  0.439E-26  0.220E-26  0.220E-26
   9.515  0.280E-29  0.140E-29  0.140E-29
   9.517  0.242E-33  0.121E-33  0.121E-33
   9.519  0.287E-34  0.144E-34  0.144E-34
   9.521  0.406E-30  0.203E-30  0.203E-30
   9.523  0.776E-27  0.388E-27  0.388E-27
   9.525  0.201E-24  0.100E-24  0.100E-24
   9.527  0.703E-23  0.351E-23  0.351E-23
   9.529  0.333E-22  0.167E-22  0.167E-22
   9.531  0.214E-22  0.107E-22  0.107E-22
   9.533  0.185E-23  0.927E-24  0.927E-24
   9.535  0.218E-25  0.109E-25  0.109E-25
   9.537  0.346E-28  0.173E-28  0.173E-28
   9.539  0.748E-32  0.374E-32  0.374E-32
   9.541  0.111E-29  0.556E-30  0.556E-30
   9.543  0.476E-26  0.238E-26  0.238E-26
   9.545  0.276E-23  0.138E-23  0.138E-23
   9.547  0.217E-21  0.108E-21  0.108E-21
   9.549  0.230E-20  0.115E-20  0.115E-20
   9.551  0.331E-20  0.165E-20  0.165E-20
   9.553  0.643E-21  0.322E-21  0.322E-21
   9.555  0.195E-22  0.976E-23  0.976E-23
   9.557  0.398E-23  0.199E-23  0.199E-23
   9.559  0.802E-24  0.401E-24  0.401E-24
   9.561  0.222E-25  0.111E-25  0.111E-25
   9.563  0.833E-28  0.417E-28  0.417E-28
   9.565  0.423E-31  0.211E-31  0.211E-31
   9.567  0.290E-35  0.145E-35  0.145E-35
   9.569  0.270E-40  0.135E-40  0.135E-40
   9.571  0.000E+00  0.000E+00  0.000E+00
   9.573  0.000E+00  0.000E+00  0.000E+00
   9.575  0.959E-38  0.479E-38  0.479E-38
   9.577  0.452E-33  0.226E-33  0.226E-33
   9.579  0.288E-29  0.144E-29  0.144E-29
   9.581  0.249E-26  0.124E-26  0.124E-26
   9.583  0.291E-24  0.145E-24  0.145E-24
   9.585  0.459E-23  0.230E-23  0.230E-23
   9.587  0.983E-23  0.491E-23  0.491E-23
   9.589  0.285E-23  0.142E-23  0.142E-23
   9.591  0.176E-24  0.880E-25  0.880E-25
   9.593  0.922E-23  0.461E-23  0.461E-23
   9.595  0.178E-21  0.892E-22  0.892E-22
   9.597  0.467E-21  0.233E-21  0.233E-21
   9.599  0.165E-21  0.827E-22  0.827E-22
   9.601  0.794E-23  0.397E-23  0.397E-23
   9.603  0.515E-25  0.258E-25  0.258E-25
   9.605  0.452E-28  0.226E-28  0.226E-28
   9.607  0.538E-32  0.269E-32  0.269E-32
   9.609  0.865E-37  0.433E-37  0.433E-37
   9.611  0.000E+00  0.000E+00  0.000E+00
   9.613  0.121E-38  0.604E-39  0.604E-39
   9.615  0.130E-33  0.651E-34  0.651E-34
   9.617  0.190E-29  0.950E-30  0.950E-30
   9.619  0.375E-26  0.188E-26  0.188E-26
   9.621  0.100E-23  0.501E-24  0.501E-24
   9.623  0.362E-22  0.181E-22  0.181E-22
   9.625  0.177E-21  0.887E-22  0.887E-22
   9.627  0.118E-21  0.588E-22  0.588E-22
   9.629  0.105E-22  0.527E-23  0.527E-23
   9.631  0.128E-24  0.639E-25  0.639E-25
   9.633  0.210E-27  0.105E-27  0.105E-27
   9.635  0.467E-31  0.233E-31  0.233E-31
   9.637  0.140E-35  0.702E-36  0.702E-36
   9.639  0.701E-39  0.351E-39  0.351E-39
   9.641  0.775E-18  0.387E-18  0.387E-18
   9.643  0.399E-13  0.200E-13  0.200E-13
   9.645  0.279E-09  0.139E-09  0.139E-09
   9.647  0.263E-06  0.131E-06  0.131E-06
   9.649  0.337E-04  0.168E-04  0.168E-04
   9.651  0.596E-03  0.298E-03  0.298E-03
   9.653  0.171E-02  0.857E-03  0.857E-03
   9.655  0.159E-02  0.793E-03  0.793E-03
   9.657  0.527E-03  0.264E-03  0.264E-03
   9.659  0.304E-04  0.152E-04  0.152E-04
   9.661  0.245E-06  0.122E-06  0.122E-06
   9.663  0.267E-09  0.134E-09  0.134E-09
   9.665  0.572E-11  0.286E-11  0.286E-11
   9.667  0.134E-07  0.671E-08  0.671E-08
   9.669  0.429E-05  0.215E-05  0.215E-05
   9.671  0.187E-03  0.937E-04  0.937E-04
   9.673  0.122E-02  0.611E-03  0.611E-03
   9.675  0.207E-02  0.103E-02  0.103E-02
   9.677  0.154E-02  0.770E-03  0.770E-03
   9.679  0.236E-03  0.118E-03  0.118E-03
   9.681  0.514E-05  0.257E-05  0.257E-05
   9.683  0.153E-07  0.763E-08  0.763E-08
   9.685  0.612E-11  0.306E-11  0.306E-11
   9.687  0.333E-15  0.166E-15  0.166E-15
   9.689  0.110E-18  0.549E-19  0.549E-19
   9.691  0.785E-14  0.392E-14  0.392E-14
   9.693  0.777E-10  0.389E-10  0.389E-10
   9.695  0.104E-06  0.521E-07  0.521E-07
   9.697  0.189E-04  0.944E-05  0.944E-05
   9.699  0.463E-03  0.232E-03  0.232E-03
   9.701  0.154E-02  0.769E-03  0.769E-03
   9.703  0.692E-03  0.346E-03  0.346E-03
   9.705  0.421E-04  0.210E-04  0.210E-04
   9.707  0.346E-06  0.173E-06  0.173E-06
   9.709  0.386E-09  0.193E-09  0.193E-09
   9.711  0.582E-13  0.291E-13  0.291E-13
   9.713  0.140E-17  0.699E-18  0.699E-18
   9.715  0.140E-13  0.701E-14  0.701E-14
   9.717  0.127E-09  0.633E-10  0.633E-10
   9.719  0.155E-06  0.773E-07  0.773E-07
   9.721  0.256E-04  0.128E-04  0.128E-04
   9.723  0.572E-03  0.286E-03  0.286E-03
   9.725  0.173E-02  0.866E-03  0.866E-03
   9.727  0.709E-03  0.355E-03  0.355E-03
   9.729  0.417E-04  0.208E-04  0.208E-04
   9.731  0.155E-03  0.774E-04  0.774E-04
   9.733  0.139E-02  0.696E-03  0.696E-03
   9.735  0.169E-02  0.847E-03  0.847E-03
   9.737  0.279E-03  0.140E-03  0.140E-03
   9.739  0.623E-05  0.312E-05  0.312E-05
   9.741  0.188E-07  0.941E-08  0.941E-08
   9.743  0.769E-11  0.385E-11  0.385E-11
   9.745  0.425E-15  0.213E-15  0.213E-15
   9.747  0.321E-20  0.161E-20  0.161E-20
   9.749  0.167E-21  0.836E-22  0.836E-22
   9.751  0.127E-21  0.633E-22  0.633E-22
   9.753  0.162E-22  0.812E-23  0.812E-23
   9.755  0.459E-22  0.230E-22  0.230E-22
   9.757  0.868E-22  0.434E-22  0.434E-22
   9.759  0.787E-19  0.394E-19  0.394E-19
   9.761  0.656E-14  0.328E-14  0.328E-14
   9.763  0.740E-10  0.370E-10  0.370E-10
   9.765  0.113E-06  0.565E-07  0.565E-07
   9.767  0.233E-04  0.117E-04  0.117E-04
   9.769  0.652E-03  0.326E-03  0.326E-03
   9.771  0.247E-02  0.123E-02  0.123E-02
   9.773  0.126E-02  0.632E-03  0.632E-03
   9.775  0.125E-03  0.627E-04  0.627E-04
   9.777  0.112E-02  0.560E-03  0.560E-03
   9.779  0.448E-02  0.224E-02  0.224E-02
   9.781  0.243E-02  0.121E-02  0.121E-02
   9.783  0.178E-03  0.889E-04  0.889E-04
   9.785  0.176E-05  0.882E-06  0.882E-06
   9.787  0.131E-06  0.655E-07  0.655E-07
   9.789  0.327E-04  0.163E-04  0.163E-04
   9.791  0.115E-02  0.574E-03  0.574E-03
   9.793  0.570E-02  0.285E-02  0.285E-02
   9.795  0.414E-02  0.207E-02  0.207E-02
   9.797  0.458E-03  0.229E-03  0.229E-03
   9.799  0.793E-05  0.396E-05  0.396E-05
   9.801  0.328E-06  0.164E-06  0.164E-06
   9.803  0.480E-04  0.240E-04  0.240E-04
   9.805  0.102E-02  0.509E-03  0.509E-03
   9.807  0.292E-02  0.146E-02  0.146E-02
   9.809  0.151E-02  0.757E-03  0.757E-03
   9.811  0.264E-02  0.132E-02  0.132E-02
   9.813  0.234E-02  0.117E-02  0.117E-02
   9.815  0.288E-03  0.144E-03  0.144E-03
   9.817  0.479E-05  0.240E-05  0.240E-05
   9.819  0.102E-06  0.510E-07  0.510E-07
   9.821  0.100E-04  0.501E-05  0.501E-05
   9.823  0.149E-03  0.745E-04  0.745E-04
   9.825  0.304E-03  0.152E-03  0.152E-03
   9.827  0.386E-03  0.193E-03  0.193E-03
   9.829  0.308E-02  0.154E-02  0.154E-02
   9.831  0.449E-02  0.225E-02  0.225E-02
   9.833  0.141E-02  0.705E-03  0.705E-03
   9.835  0.193E-03  0.967E-04  0.967E-04
   9.837  0.653E-05  0.327E-05  0.327E-05
   9.839  0.328E-07  0.164E-07  0.164E-07
   9.841  0.227E-10  0.113E-10  0.113E-10
   9.843  0.171E-11  0.857E-12  0.857E-12
   9.845  0.443E-08  0.221E-08  0.221E-08
   9.847  0.155E-05  0.774E-06  0.774E-06
   9.849  0.734E-04  0.367E-04  0.367E-04
   9.851  0.494E-03  0.247E-03  0.247E-03
   9.853  0.122E-02  0.609E-03  0.609E-03
   9.855  0.367E-02  0.184E-02  0.184E-02
   9.857  0.219E-02  0.110E-02  0.110E-02
   9.859  0.188E-03  0.939E-04  0.939E-04
   9.861  0.114E-03  0.571E-04  0.571E-04
   9.863  0.199E-03  0.995E-04  0.995E-04
   9.865  0.478E-04  0.239E-04  0.239E-04
   9.867  0.155E-05  0.776E-06  0.776E-06
   9.869  0.132E-07  0.661E-08  0.661E-08
   9.871  0.342E-05  0.171E-05  0.171E-05
   9.873  0.248E-03  0.124E-03  0.124E-03
   9.875  0.243E-02  0.122E-02  0.122E-02
   9.877  0.356E-02  0.178E-02  0.178E-02
   9.879  0.249E-02  0.125E-02  0.125E-02
   9.881  0.191E-02  0.956E-03  0.956E-03
   9.883  0.388E-03  0.194E-03  0.194E-03
   9.885  0.155E-04  0.775E-05  0.775E-05
   9.887  0.101E-06  0.505E-07  0.505E-07
   9.889  0.955E-10  0.477E-10  0.477E-10
   9.891  0.133E-13  0.666E-14  0.666E-14
   9.893  0.155E-10  0.777E-11  0.777E-11
   9.895  0.392E-07  0.196E-07  0.196E-07
   9.897  0.134E-04  0.669E-05  0.669E-05
   9.899  0.618E-03  0.309E-03  0.309E-03
   9.901  0.386E-02  0.193E-02  0.193E-02
   9.903  0.327E-02  0.163E-02  0.163E-02
   9.905  0.374E-03  0.187E-03  0.187E-03
   9.907  0.588E-05  0.294E-05  0.294E-05
   9.909  0.140E-04  0.701E-05  0.701E-05
   9.911  0.336E-03  0.168E-03  0.168E-03
   9.913  0.109E-02  0.547E-03  0.547E-03
   9.915  0.510E-03  0.255E-03  0.255E-03
   9.917  0.154E-03  0.769E-04  0.769E-04
   9.919  0.734E-04  0.367E-04  0.367E-04
   9.921  0.560E-04  0.280E-04  0.280E-04
   9.923  0.949E-03  0.475E-03  0.475E-03
   9.925  0.243E-02  0.121E-02  0.121E-02
   9.927  0.839E-03  0.420E-03  0.420E-03
   9.929  0.393E-04  0.196E-04  0.196E-04
   9.931  0.249E-06  0.124E-06  0.124E-06
   9.933  0.213E-09  0.107E-09  0.107E-09
   9.935  0.248E-13  0.124E-13  0.124E-13
   9.937  0.389E-18  0.194E-18  0.194E-18
   9.939  0.744E-17  0.372E-17  0.372E-17
   9.941  0.330E-12  0.165E-12  0.165E-12
   9.943  0.198E-08  0.988E-09  0.988E-09
   9.945  0.160E-05  0.802E-06  0.802E-06
   9.947  0.177E-03  0.886E-04  0.886E-04
   9.949  0.271E-02  0.135E-02  0.135E-02
   9.951  0.621E-02  0.311E-02  0.311E-02
   9.953  0.272E-02  0.136E-02  0.136E-02
   9.955  0.288E-03  0.144E-03  0.144E-03
   9.957  0.606E-05  0.303E-05  0.303E-05
   9.959  0.195E-07  0.976E-08  0.976E-08
   9.961  0.875E-11  0.437E-11  0.437E-11
   9.963  0.286E-14  0.143E-14  0.143E-14
   9.965  0.282E-10  0.141E-10  0.141E-10
   9.967  0.463E-07  0.231E-07  0.231E-07
   9.969  0.103E-04  0.514E-05  0.514E-05
   9.971  0.309E-03  0.154E-03  0.154E-03
   9.973  0.126E-02  0.628E-03  0.628E-03
   9.975  0.692E-03  0.346E-03  0.346E-03
   9.977  0.779E-04  0.390E-04  0.390E-04
   9.979  0.195E-03  0.976E-04  0.976E-04
   9.981  0.277E-03  0.138E-03  0.138E-03
   9.983  0.102E-03  0.512E-04  0.512E-04
   9.985  0.791E-05  0.395E-05  0.395E-05
   9.987  0.937E-07  0.468E-07  0.468E-07
   9.989  0.149E-07  0.744E-08  0.744E-08
   9.991  0.439E-05  0.220E-05  0.220E-05
   9.993  0.211E-03  0.106E-03  0.106E-03
   9.995  0.149E-02  0.743E-03  0.743E-03
   9.997  0.148E-02  0.738E-03  0.738E-03
   9.999  0.934E-03  0.467E-03  0.467E-03
  10.001  0.502E-02  0.251E-02  0.251E-02
  10.003  0.461E-02  0.231E-02  0.231E-02
  10.005  0.574E-03  0.287E-03  0.287E-03
  10.007  0.968E-05  0.484E-05  0.484E-05
  10.009  0.221E-07  0.110E-07  0.110E-07
  10.011  0.685E-11  0.342E-11  0.342E-11
  10.013  0.220E-09  0.110E-09  0.110E-09
  10.015  0.169E-06  0.847E-07  0.847E-07
  10.017  0.176E-04  0.881E-05  0.881E-05
  10.019  0.248E-03  0.124E-03  0.124E-03
  10.021  0.473E-03  0.237E-03  0.237E-03
  10.023  0.122E-03  0.610E-04  0.610E-04
  10.025  0.426E-05  0.213E-05  0.213E-05
  10.027  0.201E-07  0.101E-07  0.101E-07
  10.029  0.129E-10  0.643E-11  0.643E-11
  10.031  0.112E-14  0.560E-15  0.560E-15
  10.033  0.197E-12  0.984E-13  0.984E-13
  10.035  0.867E-09  0.433E-09  0.433E-09
  10.037  0.537E-06  0.269E-06  0.269E-06
  10.039  0.521E-04  0.261E-04  0.261E-04
  10.041  0.101E-02  0.503E-03  0.503E-03
  10.043  0.434E-02  0.217E-02  0.217E-02
  10.045  0.337E-02  0.168E-02  0.168E-02
  10.047  0.388E-03  0.194E-03  0.194E-03
  10.049  0.654E-05  0.327E-05  0.327E-05
  10.051  0.682E-04  0.341E-04  0.341E-04
  10.053  0.185E-02  0.925E-03  0.925E-03
  10.055  0.690E-02  0.345E-02  0.345E-02
  10.057  0.351E-02  0.176E-02  0.176E-02
  10.059  0.246E-03  0.123E-03  0.123E-03
  10.061  0.245E-03  0.122E-03  0.122E-03
  10.063  0.271E-02  0.136E-02  0.136E-02
  10.065  0.413E-02  0.207E-02  0.207E-02
  10.067  0.897E-03  0.449E-03  0.449E-03
  10.069  0.375E-04  0.188E-04  0.188E-04
  10.071  0.557E-06  0.278E-06  0.278E-06
  10.073  0.213E-08  0.106E-08  0.106E-08
  10.075  0.125E-11  0.626E-12  0.626E-12
  10.077  0.102E-15  0.508E-16  0.508E-16
  10.079  0.119E-20  0.595E-21  0.595E-21
  10.081  0.195E-22  0.973E-23  0.973E-23
  10.083  0.249E-19  0.125E-19  0.125E-19
  10.085  0.252E-14  0.126E-14  0.126E-14
  10.087  0.346E-10  0.173E-10  0.173E-10
  10.089  0.643E-07  0.321E-07  0.321E-07
  10.091  0.161E-04  0.807E-05  0.807E-05
  10.093  0.549E-03  0.274E-03  0.274E-03
  10.095  0.253E-02  0.126E-02  0.126E-02
  10.097  0.157E-02  0.786E-03  0.786E-03
  10.099  0.183E-03  0.917E-04  0.917E-04
  10.101  0.160E-02  0.799E-03  0.799E-03
  10.103  0.679E-02  0.340E-02  0.340E-02
  10.105  0.391E-02  0.196E-02  0.196E-02
  10.107  0.516E-03  0.258E-03  0.258E-03
  10.109  0.350E-02  0.175E-02  0.175E-02
  10.111  0.784E-02  0.392E-02  0.392E-02
  10.113  0.238E-02  0.119E-02  0.119E-02
  10.115  0.984E-04  0.492E-04  0.492E-04
  10.117  0.556E-06  0.278E-06  0.278E-06
  10.119  0.435E-09  0.218E-09  0.218E-09
  10.121  0.480E-13  0.240E-13  0.240E-13
  10.123  0.772E-18  0.386E-18  0.386E-18
  10.125  0.111E-27  0.557E-28  0.557E-28
  10.127  0.177E-31  0.883E-32  0.883E-32
  10.129  0.591E-29  0.295E-29  0.295E-29
  10.131  0.181E-25  0.906E-26  0.906E-26
  10.133  0.753E-23  0.376E-23  0.376E-23
  10.135  0.423E-21  0.211E-21  0.211E-21
  10.137  0.322E-20  0.161E-20  0.161E-20
  10.139  0.219E-17  0.109E-17  0.109E-17
  10.141  0.109E-12  0.543E-13  0.543E-13
  10.143  0.731E-09  0.366E-09  0.366E-09
  10.145  0.666E-06  0.333E-06  0.333E-06
  10.147  0.822E-04  0.411E-04  0.411E-04
  10.149  0.137E-02  0.686E-03  0.686E-03
  10.151  0.310E-02  0.155E-02  0.155E-02
  10.153  0.103E-02  0.514E-03  0.514E-03
  10.155  0.202E-02  0.101E-02  0.101E-02
  10.157  0.915E-02  0.458E-02  0.458E-02
  10.159  0.628E-02  0.314E-02  0.314E-02
  10.161  0.595E-03  0.298E-03  0.298E-03
  10.163  0.178E-04  0.892E-05  0.892E-05
  10.165  0.675E-03  0.338E-03  0.338E-03
  10.167  0.610E-02  0.305E-02  0.305E-02
  10.169  0.748E-02  0.374E-02  0.374E-02
  10.171  0.130E-02  0.652E-03  0.652E-03
  10.173  0.585E-03  0.292E-03  0.292E-03
  10.175  0.772E-03  0.386E-03  0.386E-03
  10.177  0.206E-03  0.103E-03  0.103E-03
  10.179  0.254E-04  0.127E-04  0.127E-04
  10.181  0.594E-04  0.297E-04  0.297E-04
  10.183  0.281E-03  0.141E-03  0.141E-03
  10.185  0.511E-03  0.256E-03  0.256E-03
  10.187  0.455E-03  0.227E-03  0.227E-03
  10.189  0.135E-03  0.676E-04  0.676E-04
  10.191  0.102E-02  0.508E-03  0.508E-03
  10.193  0.340E-02  0.170E-02  0.170E-02
  10.195  0.201E-02  0.101E-02  0.101E-02
  10.197  0.634E-03  0.317E-03  0.317E-03
  10.199  0.882E-03  0.441E-03  0.441E-03
  10.201  0.159E-02  0.797E-03  0.797E-03
  10.203  0.480E-03  0.240E-03  0.240E-03
  10.205  0.531E-04  0.265E-04  0.265E-04
  10.207  0.111E-02  0.554E-03  0.554E-03
  10.209  0.536E-02  0.268E-02  0.268E-02
  10.211  0.361E-02  0.180E-02  0.180E-02
  10.213  0.347E-03  0.174E-03  0.174E-03
  10.215  0.756E-05  0.378E-05  0.378E-05
  10.217  0.829E-04  0.414E-04  0.414E-04
  10.219  0.134E-02  0.672E-03  0.672E-03
  10.221  0.963E-02  0.482E-02  0.482E-02
  10.223  0.169E-01  0.846E-02  0.846E-02
  10.225  0.695E-02  0.348E-02  0.348E-02
  10.227  0.945E-02  0.473E-02  0.473E-02
  10.229  0.556E-02  0.278E-02  0.278E-02
  10.231  0.338E-02  0.169E-02  0.169E-02
  10.233  0.358E-02  0.179E-02  0.179E-02
  10.235  0.633E-03  0.316E-03  0.316E-03
  10.237  0.156E-04  0.782E-05  0.782E-05
  10.239  0.254E-04  0.127E-04  0.127E-04
  10.241  0.658E-03  0.329E-03  0.329E-03
  10.243  0.277E-02  0.139E-02  0.139E-02
  10.245  0.318E-02  0.159E-02  0.159E-02
  10.247  0.125E-02  0.626E-03  0.626E-03
  10.249  0.122E-03  0.612E-04  0.612E-04
  10.251  0.151E-03  0.755E-04  0.755E-04
  10.253  0.233E-03  0.116E-03  0.116E-03
  10.255  0.388E-03  0.194E-03  0.194E-03
  10.257  0.736E-03  0.368E-03  0.368E-03
  10.259  0.278E-02  0.139E-02  0.139E-02
  10.261  0.124E-01  0.618E-02  0.618E-02
  10.263  0.105E-01  0.527E-02  0.527E-02
  10.265  0.173E-02  0.863E-03  0.863E-03
  10.267  0.160E-03  0.799E-04  0.799E-04
  10.269  0.171E-02  0.854E-03  0.854E-03
  10.271  0.501E-02  0.251E-02  0.251E-02
  10.273  0.295E-02  0.148E-02  0.148E-02
  10.275  0.450E-03  0.225E-03  0.225E-03
  10.277  0.202E-04  0.101E-04  0.101E-04
  10.279  0.172E-06  0.859E-07  0.859E-07
  10.281  0.503E-07  0.251E-07  0.251E-07
  10.283  0.172E-04  0.860E-05  0.860E-05
  10.285  0.945E-03  0.472E-03  0.472E-03
  10.287  0.806E-02  0.403E-02  0.403E-02
  10.289  0.113E-01  0.565E-02  0.565E-02
  10.291  0.467E-02  0.233E-02  0.233E-02
  10.293  0.854E-03  0.427E-03  0.427E-03
  10.295  0.160E-02  0.800E-03  0.800E-03
  10.297  0.110E-01  0.551E-02  0.551E-02
  10.299  0.141E-01  0.705E-02  0.705E-02
  10.301  0.136E-01  0.681E-02  0.681E-02
  10.303  0.537E-02  0.269E-02  0.269E-02
  10.305  0.401E-03  0.200E-03  0.200E-03
  10.307  0.267E-02  0.133E-02  0.133E-02
  10.309  0.125E-01  0.625E-02  0.625E-02
  10.311  0.793E-02  0.396E-02  0.396E-02
  10.313  0.681E-03  0.340E-03  0.340E-03
  10.315  0.791E-05  0.395E-05  0.395E-05
  10.317  0.990E-07  0.495E-07  0.495E-07
  10.319  0.183E-04  0.916E-05  0.916E-05
  10.321  0.524E-03  0.262E-03  0.262E-03
  10.323  0.203E-02  0.102E-02  0.102E-02
  10.325  0.107E-02  0.535E-03  0.535E-03
  10.327  0.950E-04  0.475E-04  0.475E-04
  10.329  0.110E-04  0.550E-05  0.550E-05
  10.331  0.412E-05  0.206E-05  0.206E-05
  10.333  0.358E-03  0.179E-03  0.179E-03
  10.335  0.520E-02  0.260E-02  0.260E-02
  10.337  0.103E-01  0.517E-02  0.517E-02
  10.339  0.281E-02  0.141E-02  0.141E-02
  10.341  0.105E-03  0.525E-04  0.525E-04
  10.343  0.115E-04  0.575E-05  0.575E-05
  10.345  0.808E-03  0.404E-03  0.404E-03
  10.347  0.838E-02  0.419E-02  0.419E-02
  10.349  0.164E-01  0.822E-02  0.822E-02
  10.351  0.132E-01  0.661E-02  0.661E-02
  10.353  0.307E-02  0.154E-02  0.154E-02
  10.355  0.111E-03  0.554E-04  0.554E-04
  10.357  0.648E-05  0.324E-05  0.324E-05
  10.359  0.774E-05  0.387E-05  0.387E-05
  10.361  0.113E-03  0.563E-04  0.563E-04
  10.363  0.383E-02  0.192E-02  0.192E-02
  10.365  0.187E-01  0.935E-02  0.935E-02
  10.367  0.126E-01  0.630E-02  0.630E-02
  10.369  0.141E-02  0.703E-03  0.703E-03
  10.371  0.100E-02  0.501E-03  0.501E-03
  10.373  0.155E-02  0.777E-03  0.777E-03
  10.375  0.379E-02  0.189E-02  0.189E-02
  10.377  0.146E-01  0.731E-02  0.731E-02
  10.379  0.163E-01  0.814E-02  0.814E-02
  10.381  0.357E-02  0.178E-02  0.178E-02
  10.383  0.512E-02  0.256E-02  0.256E-02
  10.385  0.407E-02  0.203E-02  0.203E-02
  10.387  0.443E-03  0.221E-03  0.221E-03
  10.389  0.719E-05  0.360E-05  0.360E-05
  10.391  0.328E-05  0.164E-05  0.164E-05
  10.393  0.216E-05  0.108E-05  0.108E-05
  10.395  0.192E-06  0.962E-07  0.962E-07
  10.397  0.230E-07  0.115E-07  0.115E-07
  10.399  0.126E-04  0.632E-05  0.632E-05
  10.401  0.105E-02  0.526E-03  0.526E-03
  10.403  0.119E-01  0.597E-02  0.597E-02
  10.405  0.185E-01  0.926E-02  0.926E-02
  10.407  0.431E-02  0.216E-02  0.216E-02
  10.409  0.490E-03  0.245E-03  0.245E-03
  10.411  0.632E-03  0.316E-03  0.316E-03
  10.413  0.707E-02  0.354E-02  0.354E-02
  10.415  0.115E-01  0.577E-02  0.577E-02
  10.417  0.346E-02  0.173E-02  0.173E-02
  10.419  0.282E-02  0.141E-02  0.141E-02
  10.421  0.110E-02  0.549E-03  0.549E-03
  10.423  0.688E-04  0.344E-04  0.344E-04
  10.425  0.916E-03  0.458E-03  0.458E-03
  10.427  0.121E-01  0.606E-02  0.606E-02
  10.429  0.231E-01  0.116E-01  0.116E-01
  10.431  0.155E-01  0.773E-02  0.773E-02
  10.433  0.202E-01  0.101E-01  0.101E-01
  10.435  0.180E-01  0.901E-02  0.901E-02
  10.437  0.562E-01  0.281E-01  0.281E-01
  10.439  0.374E+00  0.187E+00  0.187E+00
  10.441  0.589E+00  0.295E+00  0.295E+00
  10.443  0.610E+00  0.305E+00  0.305E+00
  10.445  0.874E+00  0.437E+00  0.437E+00
  10.447  0.227E+00  0.113E+00  0.113E+00
  10.449  0.185E-01  0.924E-02  0.924E-02
  10.451  0.549E-01  0.275E-01  0.275E-01
  10.453  0.106E+00  0.530E-01  0.530E-01
  10.455  0.133E+00  0.663E-01  0.663E-01
  10.457  0.526E+00  0.263E+00  0.263E+00
  10.459  0.647E+00  0.324E+00  0.324E+00
  10.461  0.171E+00  0.856E-01  0.856E-01
  10.463  0.463E-01  0.232E-01  0.232E-01
  10.465  0.138E+00  0.689E-01  0.689E-01
  10.467  0.113E+00  0.567E-01  0.567E-01
  10.469  0.359E-01  0.179E-01  0.179E-01
  10.471  0.740E-02  0.370E-02  0.370E-02
  10.473  0.155E-02  0.773E-03  0.773E-03
  10.475  0.111E-01  0.556E-02  0.556E-02
  10.477  0.103E+00  0.515E-01  0.515E-01
  10.479  0.324E+00  0.162E+00  0.162E+00
  10.481  0.561E+00  0.281E+00  0.281E+00
  10.483  0.431E+00  0.215E+00  0.215E+00
  10.485  0.124E+00  0.620E-01  0.620E-01
  10.487  0.134E-01  0.670E-02  0.670E-02
  10.489  0.419E-03  0.209E-03  0.209E-03
  10.491  0.800E-02  0.400E-02  0.400E-02
  10.493  0.706E-01  0.353E-01  0.353E-01
  10.495  0.931E-01  0.466E-01  0.466E-01
  10.497  0.410E-01  0.205E-01  0.205E-01
  10.499  0.185E-01  0.923E-02  0.923E-02
  10.501  0.609E-01  0.304E-01  0.304E-01
  10.503  0.126E+00  0.630E-01  0.630E-01
  10.505  0.916E-01  0.458E-01  0.458E-01
  10.507  0.713E-01  0.357E-01  0.357E-01
  10.509  0.227E-01  0.113E-01  0.113E-01
  10.511  0.156E+00  0.780E-01  0.780E-01
  10.513  0.456E+00  0.228E+00  0.228E+00
  10.515  0.357E+00  0.179E+00  0.179E+00
  10.517  0.106E+00  0.529E-01  0.529E-01
  10.519  0.764E-02  0.382E-02  0.382E-02
  10.521  0.134E-03  0.671E-04  0.671E-04
  10.523  0.707E-03  0.353E-03  0.353E-03
  10.525  0.903E-02  0.451E-02  0.451E-02
  10.527  0.207E-01  0.104E-01  0.104E-01
  10.529  0.787E-01  0.393E-01  0.393E-01
  10.531  0.253E+00  0.127E+00  0.127E+00
  10.533  0.182E+00  0.911E-01  0.911E-01
  10.535  0.255E-01  0.128E-01  0.128E-01
  10.537  0.822E-03  0.411E-03  0.411E-03
  10.539  0.587E-02  0.293E-02  0.293E-02
  10.541  0.214E-01  0.107E-01  0.107E-01
  10.543  0.184E-01  0.922E-02  0.922E-02
  10.545  0.361E-01  0.181E-01  0.181E-01
  10.547  0.233E-01  0.117E-01  0.117E-01
  10.549  0.243E-01  0.122E-01  0.122E-01
  10.551  0.194E+00  0.972E-01  0.972E-01
  10.553  0.355E+00  0.178E+00  0.178E+00
  10.555  0.306E+00  0.153E+00  0.153E+00
  10.557  0.133E+00  0.666E-01  0.666E-01
  10.559  0.399E-01  0.200E-01  0.200E-01
  10.561  0.118E+00  0.589E-01  0.589E-01
  10.563  0.164E+00  0.818E-01  0.818E-01
  10.565  0.795E-01  0.398E-01  0.398E-01
  10.567  0.936E-02  0.468E-02  0.468E-02
  10.569  0.109E-01  0.543E-02  0.543E-02
  10.571  0.364E-01  0.182E-01  0.182E-01
  10.573  0.213E-01  0.106E-01  0.106E-01
  10.575  0.647E-02  0.324E-02  0.324E-02
  10.577  0.366E-01  0.183E-01  0.183E-01
  10.579  0.101E+00  0.507E-01  0.507E-01
  10.581  0.385E-01  0.193E-01  0.193E-01
  10.583  0.198E-02  0.991E-03  0.991E-03
  10.585  0.138E-04  0.691E-05  0.691E-05
  10.587  0.413E-06  0.207E-06  0.207E-06
  10.589  0.162E-03  0.810E-04  0.810E-04
  10.591  0.889E-02  0.445E-02  0.445E-02
  10.593  0.690E-01  0.345E-01  0.345E-01
  10.595  0.147E+00  0.737E-01  0.737E-01
  10.597  0.324E+00  0.162E+00  0.162E+00
  10.599  0.274E+00  0.137E+00  0.137E+00
  10.601  0.196E+00  0.981E-01  0.981E-01
  10.603  0.165E+00  0.826E-01  0.826E-01
  10.605  0.109E+00  0.544E-01  0.544E-01
  10.607  0.561E-01  0.280E-01  0.280E-01
  10.609  0.136E-01  0.681E-02  0.681E-02
  10.611  0.102E-01  0.512E-02  0.512E-02
  10.613  0.138E-01  0.691E-02  0.691E-02
  10.615  0.329E-02  0.165E-02  0.165E-02
  10.617  0.275E-02  0.138E-02  0.138E-02
  10.619  0.178E-01  0.889E-02  0.889E-02
  10.621  0.203E-01  0.101E-01  0.101E-01
  10.623  0.652E-02  0.326E-02  0.326E-02
  10.625  0.727E-02  0.363E-02  0.363E-02
  10.627  0.146E-01  0.729E-02  0.729E-02
  10.629  0.806E-01  0.403E-01  0.403E-01
  10.631  0.139E+00  0.696E-01  0.696E-01
  10.633  0.114E+00  0.570E-01  0.570E-01
  10.635  0.471E-01  0.235E-01  0.235E-01
  10.637  0.831E-01  0.415E-01  0.415E-01
  10.639  0.113E+00  0.564E-01  0.564E-01
  10.641  0.233E-01  0.116E-01  0.116E-01
  10.643  0.138E-01  0.692E-02  0.692E-02
  10.645  0.151E+00  0.757E-01  0.757E-01
  10.647  0.272E+00  0.136E+00  0.136E+00
  10.649  0.102E+00  0.510E-01  0.510E-01
  10.651  0.550E-01  0.275E-01  0.275E-01
  10.653  0.164E+00  0.818E-01  0.818E-01
  10.655  0.112E+00  0.559E-01  0.559E-01
  10.657  0.129E-01  0.645E-02  0.645E-02
  10.659  0.582E-02  0.291E-02  0.291E-02
  10.661  0.379E-01  0.190E-01  0.190E-01
  10.663  0.829E-01  0.415E-01  0.415E-01
  10.665  0.253E-01  0.127E-01  0.127E-01
  10.667  0.755E-02  0.378E-02  0.378E-02
  10.669  0.589E-01  0.294E-01  0.294E-01
  10.671  0.720E-01  0.360E-01  0.360E-01
  10.673  0.119E-01  0.597E-02  0.597E-02
  10.675  0.153E-02  0.764E-03  0.764E-03
  10.677  0.311E-01  0.156E-01  0.156E-01
  10.679  0.142E+00  0.709E-01  0.709E-01
  10.681  0.106E+00  0.528E-01  0.528E-01
  10.683  0.122E-01  0.609E-02  0.609E-02
  10.685  0.243E-03  0.121E-03  0.121E-03
  10.687  0.133E-04  0.664E-05  0.664E-05
  10.689  0.806E-03  0.403E-03  0.403E-03
  10.691  0.141E-01  0.705E-02  0.705E-02
  10.693  0.704E-01  0.352E-01  0.352E-01
  10.695  0.652E-01  0.326E-01  0.326E-01
  10.697  0.882E-01  0.441E-01  0.441E-01
  10.699  0.246E+00  0.123E+00  0.123E+00
  10.701  0.127E+00  0.633E-01  0.633E-01
  10.703  0.518E-01  0.259E-01  0.259E-01
  10.705  0.419E-01  0.209E-01  0.209E-01
  10.707  0.693E-01  0.346E-01  0.346E-01
  10.709  0.156E+00  0.781E-01  0.781E-01
  10.711  0.783E-01  0.391E-01  0.391E-01
  10.713  0.866E-01  0.433E-01  0.433E-01
  10.715  0.539E-01  0.269E-01  0.269E-01
  10.717  0.338E-01  0.169E-01  0.169E-01
  10.719  0.145E-01  0.727E-02  0.727E-02
  10.721  0.489E-01  0.244E-01  0.244E-01
  10.723  0.127E+00  0.635E-01  0.635E-01
  10.725  0.981E-01  0.491E-01  0.491E-01
  10.727  0.933E-01  0.467E-01  0.467E-01
  10.729  0.345E-01  0.172E-01  0.172E-01
  10.731  0.396E-01  0.198E-01  0.198E-01
  10.733  0.297E-01  0.148E-01  0.148E-01
  10.735  0.104E-01  0.518E-02  0.518E-02
  10.737  0.295E-02  0.148E-02  0.148E-02
  10.739  0.184E-03  0.922E-04  0.922E-04
  10.741  0.289E-05  0.144E-05  0.144E-05
  10.743  0.173E-03  0.865E-04  0.865E-04
  10.745  0.460E-02  0.230E-02  0.230E-02
  10.747  0.166E-01  0.828E-02  0.828E-02
  10.749  0.906E-02  0.453E-02  0.453E-02
  10.751  0.338E-01  0.169E-01  0.169E-01
  10.753  0.189E+00  0.945E-01  0.945E-01
  10.755  0.203E+00  0.102E+00  0.102E+00
  10.757  0.757E-01  0.378E-01  0.378E-01
  10.759  0.150E+00  0.750E-01  0.750E-01
  10.761  0.957E-01  0.479E-01  0.479E-01
  10.763  0.145E-01  0.725E-02  0.725E-02
  10.765  0.105E+00  0.525E-01  0.525E-01
  10.767  0.279E+00  0.140E+00  0.140E+00
  10.769  0.105E+00  0.524E-01  0.524E-01
  10.771  0.634E-02  0.317E-02  0.317E-02
  10.773  0.756E-02  0.378E-02  0.378E-02
  10.775  0.262E-01  0.131E-01  0.131E-01
  10.777  0.131E-01  0.657E-02  0.657E-02
  10.779  0.134E-02  0.671E-03  0.671E-03
  10.781  0.476E-02  0.238E-02  0.238E-02
  10.783  0.909E-02  0.454E-02  0.454E-02
  10.785  0.383E-02  0.192E-02  0.192E-02
  10.787  0.690E-03  0.345E-03  0.345E-03
  10.789  0.659E-02  0.330E-02  0.330E-02
  10.791  0.332E-01  0.166E-01  0.166E-01
  10.793  0.821E-01  0.410E-01  0.410E-01
  10.795  0.667E-01  0.334E-01  0.334E-01
  10.797  0.117E-01  0.585E-02  0.585E-02
  10.799  0.240E-01  0.120E-01  0.120E-01
  10.801  0.438E-01  0.219E-01  0.219E-01
  10.803  0.143E-01  0.716E-02  0.716E-02
  10.805  0.180E-01  0.898E-02  0.898E-02
  10.807  0.100E+00  0.501E-01  0.501E-01
  10.809  0.287E+00  0.143E+00  0.143E+00
  10.811  0.308E+00  0.154E+00  0.154E+00
  10.813  0.914E-01  0.457E-01  0.457E-01
  10.815  0.363E-01  0.182E-01  0.182E-01
  10.817  0.488E-01  0.244E-01  0.244E-01
  10.819  0.284E-01  0.142E-01  0.142E-01
  10.821  0.331E-01  0.166E-01  0.166E-01
  10.823  0.152E-01  0.762E-02  0.762E-02
  10.825  0.550E-01  0.275E-01  0.275E-01
  10.827  0.171E+00  0.853E-01  0.853E-01
  10.829  0.125E+00  0.626E-01  0.626E-01
  10.831  0.302E-01  0.151E-01  0.151E-01
  10.833  0.167E-02  0.835E-03  0.835E-03
  10.835  0.370E-02  0.185E-02  0.185E-02
  10.837  0.101E-01  0.506E-02  0.506E-02
  10.839  0.833E-02  0.417E-02  0.417E-02
  10.841  0.865E-02  0.433E-02  0.433E-02
  10.843  0.257E-02  0.129E-02  0.129E-02
  10.845  0.473E-03  0.236E-03  0.236E-03
  10.847  0.162E-02  0.811E-03  0.811E-03
  10.849  0.337E-02  0.168E-02  0.168E-02
  10.851  0.431E-01  0.216E-01  0.216E-01
  10.853  0.114E+00  0.569E-01  0.569E-01
  10.855  0.418E-01  0.209E-01  0.209E-01
  10.857  0.193E-01  0.964E-02  0.964E-02
  10.859  0.716E-01  0.358E-01  0.358E-01
  10.861  0.922E-01  0.461E-01  0.461E-01
  10.863  0.110E+00  0.549E-01  0.549E-01
  10.865  0.180E+00  0.900E-01  0.900E-01
  10.867  0.175E+00  0.877E-01  0.877E-01
  10.869  0.106E+00  0.532E-01  0.532E-01
  10.871  0.152E-01  0.758E-02  0.758E-02
  10.873  0.647E-02  0.324E-02  0.324E-02
  10.875  0.113E-01  0.567E-02  0.567E-02
  10.877  0.540E-02  0.270E-02  0.270E-02
  10.879  0.172E-01  0.861E-02  0.861E-02
  10.881  0.646E-01  0.323E-01  0.323E-01
  10.883  0.648E-01  0.324E-01  0.324E-01
  10.885  0.358E-01  0.179E-01  0.179E-01
  10.887  0.108E+00  0.542E-01  0.542E-01
  10.889  0.110E+00  0.549E-01  0.549E-01
  10.891  0.782E-01  0.391E-01  0.391E-01
  10.893  0.102E+00  0.512E-01  0.512E-01
  10.895  0.229E-01  0.114E-01  0.114E-01
  10.897  0.189E-01  0.944E-02  0.944E-02
  10.899  0.637E-01  0.319E-01  0.319E-01
  10.901  0.531E-01  0.265E-01  0.265E-01
  10.903  0.548E-01  0.274E-01  0.274E-01
  10.905  0.577E-01  0.288E-01  0.288E-01
  10.907  0.327E-01  0.164E-01  0.164E-01
  10.909  0.254E-01  0.127E-01  0.127E-01
  10.911  0.214E-01  0.107E-01  0.107E-01
  10.913  0.492E-01  0.246E-01  0.246E-01
  10.915  0.880E-01  0.440E-01  0.440E-01
  10.917  0.280E-01  0.140E-01  0.140E-01
  10.919  0.747E-02  0.373E-02  0.373E-02
  10.921  0.578E-01  0.289E-01  0.289E-01
  10.923  0.129E+00  0.643E-01  0.643E-01
  10.925  0.160E+00  0.799E-01  0.799E-01
  10.927  0.159E+00  0.796E-01  0.796E-01
  10.929  0.660E-01  0.330E-01  0.330E-01
  10.931  0.114E-01  0.568E-02  0.568E-02
  10.933  0.500E-01  0.250E-01  0.250E-01
  10.935  0.849E-01  0.424E-01  0.424E-01
  10.937  0.517E-01  0.258E-01  0.258E-01
  10.939  0.775E-02  0.387E-02  0.387E-02
  10.941  0.526E-03  0.263E-03  0.263E-03
  10.943  0.810E-02  0.405E-02  0.405E-02
  10.945  0.307E-01  0.154E-01  0.154E-01
  10.947  0.606E-01  0.303E-01  0.303E-01
  10.949  0.133E+00  0.665E-01  0.665E-01
  10.951  0.634E-01  0.317E-01  0.317E-01
  10.953  0.196E-01  0.978E-02  0.978E-02
  10.955  0.671E-01  0.336E-01  0.336E-01
  10.957  0.120E+00  0.598E-01  0.598E-01
  10.959  0.789E-01  0.395E-01  0.395E-01
  10.961  0.400E-01  0.200E-01  0.200E-01
  10.963  0.586E-01  0.293E-01  0.293E-01
  10.965  0.257E-01  0.129E-01  0.129E-01
  10.967  0.391E-01  0.196E-01  0.196E-01
  10.969  0.441E-01  0.221E-01  0.221E-01
  10.971  0.747E-01  0.373E-01  0.373E-01
  10.973  0.790E-01  0.395E-01  0.395E-01
  10.975  0.695E-01  0.347E-01  0.347E-01
  10.977  0.158E+00  0.789E-01  0.789E-01
  10.979  0.171E+00  0.853E-01  0.853E-01
  10.981  0.191E+00  0.957E-01  0.957E-01
  10.983  0.113E+00  0.563E-01  0.563E-01
  10.985  0.137E-01  0.684E-02  0.684E-02
  10.987  0.458E-01  0.229E-01  0.229E-01
  10.989  0.152E+00  0.758E-01  0.758E-01
  10.991  0.102E+00  0.511E-01  0.511E-01
  10.993  0.149E-01  0.743E-02  0.743E-02
  10.995  0.270E-01  0.135E-01  0.135E-01
  10.997  0.545E-01  0.273E-01  0.273E-01
  10.999  0.410E-01  0.205E-01  0.205E-01
  11.001  0.360E-01  0.180E-01  0.180E-01
  11.003  0.271E-01  0.135E-01  0.135E-01
  11.005  0.322E-01  0.161E-01  0.161E-01
  11.007  0.471E-01  0.236E-01  0.236E-01
  11.009  0.124E+00  0.620E-01  0.620E-01
  11.011  0.768E-01  0.384E-01  0.384E-01
  11.013  0.692E-02  0.346E-02  0.346E-02
  11.015  0.858E-04  0.429E-04  0.429E-04
  11.017  0.107E-03  0.535E-04  0.535E-04
  11.019  0.234E-02  0.117E-02  0.117E-02
  11.021  0.954E-02  0.477E-02  0.477E-02
  11.023  0.159E-01  0.795E-02  0.795E-02
  11.025  0.232E-01  0.116E-01  0.116E-01
  11.027  0.279E-01  0.140E-01  0.140E-01
  11.029  0.633E-01  0.316E-01  0.316E-01
  11.031  0.155E+00  0.773E-01  0.773E-01
  11.033  0.982E-01  0.491E-01  0.491E-01
  11.035  0.103E+00  0.516E-01  0.516E-01
  11.037  0.109E+00  0.546E-01  0.546E-01
  11.039  0.640E-01  0.320E-01  0.320E-01
  11.041  0.644E-02  0.322E-02  0.322E-02
  11.043  0.344E-02  0.172E-02  0.172E-02
  11.045  0.227E-01  0.113E-01  0.113E-01
  11.047  0.212E-01  0.106E-01  0.106E-01
  11.049  0.454E-02  0.227E-02  0.227E-02
  11.051  0.876E-02  0.438E-02  0.438E-02
  11.053  0.576E-02  0.288E-02  0.288E-02
  11.055  0.690E-02  0.345E-02  0.345E-02
  11.057  0.282E-01  0.141E-01  0.141E-01
  11.059  0.349E-01  0.174E-01  0.174E-01
  11.061  0.292E-01  0.146E-01  0.146E-01
  11.063  0.222E-01  0.111E-01  0.111E-01
  11.065  0.241E-01  0.120E-01  0.120E-01
  11.067  0.513E-01  0.257E-01  0.257E-01
  11.069  0.147E+00  0.737E-01  0.737E-01
  11.071  0.761E-01  0.380E-01  0.380E-01
  11.073  0.162E-01  0.808E-02  0.808E-02
  11.075  0.138E-01  0.692E-02  0.692E-02
  11.077  0.650E-02  0.325E-02  0.325E-02
  11.079  0.116E-01  0.582E-02  0.582E-02
  11.081  0.391E-01  0.195E-01  0.195E-01
  11.083  0.349E-01  0.175E-01  0.175E-01
  11.085  0.487E-02  0.243E-02  0.243E-02
  11.087  0.185E-01  0.926E-02  0.926E-02
  11.089  0.133E+00  0.666E-01  0.666E-01
  11.091  0.230E+00  0.115E+00  0.115E+00
  11.093  0.179E+00  0.897E-01  0.897E-01
  11.095  0.408E-01  0.204E-01  0.204E-01
  11.097  0.395E-01  0.198E-01  0.198E-01
  11.099  0.333E-01  0.167E-01  0.167E-01
  11.101  0.125E-01  0.623E-02  0.623E-02
  11.103  0.104E-01  0.520E-02  0.520E-02
  11.105  0.167E-01  0.836E-02  0.836E-02
  11.107  0.903E-02  0.452E-02  0.452E-02
  11.109  0.763E-02  0.381E-02  0.381E-02
  11.111  0.284E-01  0.142E-01  0.142E-01
  11.113  0.268E-01  0.134E-01  0.134E-01
  11.115  0.491E-01  0.245E-01  0.245E-01
  11.117  0.317E-01  0.159E-01  0.159E-01
  11.119  0.340E-02  0.170E-02  0.170E-02
  11.121  0.859E-04  0.429E-04  0.429E-04
  11.123  0.297E-02  0.148E-02  0.148E-02
  11.125  0.499E-01  0.249E-01  0.249E-01
  11.127  0.122E+00  0.612E-01  0.612E-01
  11.129  0.465E-01  0.232E-01  0.232E-01
  11.131  0.163E-01  0.817E-02  0.817E-02
  11.133  0.452E-01  0.226E-01  0.226E-01
  11.135  0.464E-01  0.232E-01  0.232E-01
  11.137  0.116E-01  0.579E-02  0.579E-02
  11.139  0.388E-02  0.194E-02  0.194E-02
  11.141  0.301E-01  0.151E-01  0.151E-01
  11.143  0.143E+00  0.717E-01  0.717E-01
  11.145  0.167E+00  0.837E-01  0.837E-01
  11.147  0.122E+00  0.612E-01  0.612E-01
  11.149  0.596E-01  0.298E-01  0.298E-01
  11.151  0.494E-01  0.247E-01  0.247E-01
  11.153  0.167E-01  0.835E-02  0.835E-02
  11.155  0.268E-01  0.134E-01  0.134E-01
  11.157  0.574E-01  0.287E-01  0.287E-01
  11.159  0.724E-01  0.362E-01  0.362E-01
  11.161  0.262E-01  0.131E-01  0.131E-01
  11.163  0.384E-01  0.192E-01  0.192E-01
  11.165  0.191E-01  0.954E-02  0.954E-02
  11.167  0.132E-02  0.659E-03  0.659E-03
  11.169  0.749E-03  0.374E-03  0.374E-03
  11.171  0.427E-02  0.214E-02  0.214E-02
  11.173  0.335E-02  0.168E-02  0.168E-02
  11.175  0.509E-03  0.255E-03  0.255E-03
  11.177  0.328E-02  0.164E-02  0.164E-02
  11.179  0.221E-01  0.111E-01  0.111E-01
  11.181  0.854E-01  0.427E-01  0.427E-01
  11.183  0.127E+00  0.634E-01  0.634E-01
  11.185  0.811E-01  0.406E-01  0.406E-01
  11.187  0.587E-01  0.294E-01  0.294E-01
  11.189  0.249E-01  0.125E-01  0.125E-01
  11.191  0.122E-01  0.609E-02  0.609E-02
  11.193  0.503E-02  0.251E-02  0.251E-02
  11.195  0.473E-01  0.236E-01  0.236E-01
  11.197  0.105E+00  0.526E-01  0.526E-01
  11.199  0.913E-01  0.456E-01  0.456E-01
  11.201  0.329E-01  0.165E-01  0.165E-01
  11.203  0.357E-02  0.178E-02  0.178E-02
  11.205  0.668E-02  0.334E-02  0.334E-02
  11.207  0.581E-02  0.291E-02  0.291E-02
  11.209  0.590E-02  0.295E-02  0.295E-02
  11.211  0.340E-01  0.170E-01  0.170E-01
  11.213  0.480E-01  0.240E-01  0.240E-01
  11.215  0.201E-01  0.101E-01  0.101E-01
  11.217  0.609E-02  0.304E-02  0.304E-02
  11.219  0.496E-02  0.248E-02  0.248E-02
  11.221  0.458E-01  0.229E-01  0.229E-01
  11.223  0.624E-01  0.312E-01  0.312E-01
  11.225  0.116E-01  0.580E-02  0.580E-02
  11.227  0.294E-03  0.147E-03  0.147E-03
  11.229  0.161E-05  0.807E-06  0.807E-06
  11.231  0.227E-03  0.114E-03  0.114E-03
  11.233  0.119E-01  0.596E-02  0.596E-02
  11.235  0.861E-01  0.430E-01  0.430E-01
  11.237  0.894E-01  0.447E-01  0.447E-01
  11.239  0.156E-01  0.781E-02  0.781E-02
  11.241  0.148E-02  0.740E-03  0.740E-03
  11.243  0.140E-01  0.699E-02  0.699E-02
  11.245  0.361E-01  0.180E-01  0.180E-01
  11.247  0.529E-01  0.264E-01  0.264E-01
  11.249  0.872E-01  0.436E-01  0.436E-01
  11.251  0.770E-01  0.385E-01  0.385E-01
  11.253  0.339E-01  0.170E-01  0.170E-01
  11.255  0.420E-01  0.210E-01  0.210E-01
  11.257  0.229E-01  0.115E-01  0.115E-01
  11.259  0.274E-01  0.137E-01  0.137E-01
  11.261  0.493E-01  0.246E-01  0.246E-01
  11.263  0.126E-01  0.632E-02  0.632E-02
  11.265  0.440E-03  0.220E-03  0.220E-03
  11.267  0.326E-04  0.163E-04  0.163E-04
  11.269  0.151E-02  0.754E-03  0.754E-03
  11.271  0.103E-01  0.514E-02  0.514E-02
  11.273  0.103E-01  0.513E-02  0.513E-02
  11.275  0.179E-02  0.895E-03  0.895E-03
  11.277  0.685E-04  0.342E-04  0.342E-04
  11.279  0.161E-03  0.804E-04  0.804E-04
  11.281  0.783E-02  0.391E-02  0.391E-02
  11.283  0.552E-01  0.276E-01  0.276E-01
  11.285  0.981E-01  0.491E-01  0.491E-01
  11.287  0.118E+00  0.592E-01  0.592E-01
  11.289  0.894E-01  0.447E-01  0.447E-01
  11.291  0.363E-01  0.182E-01  0.182E-01
  11.293  0.959E-02  0.480E-02  0.480E-02
  11.295  0.115E-01  0.577E-02  0.577E-02
  11.297  0.531E-01  0.265E-01  0.265E-01
  11.299  0.965E-01  0.482E-01  0.482E-01
  11.301  0.933E-01  0.467E-01  0.467E-01
  11.303  0.792E-01  0.396E-01  0.396E-01
  11.305  0.457E-01  0.229E-01  0.229E-01
  11.307  0.104E-01  0.522E-02  0.522E-02
  11.309  0.280E-01  0.140E-01  0.140E-01
  11.311  0.280E-01  0.140E-01  0.140E-01
  11.313  0.146E-01  0.731E-02  0.731E-02
  11.315  0.337E-01  0.169E-01  0.169E-01
  11.317  0.157E-01  0.786E-02  0.786E-02
  11.319  0.107E-02  0.533E-03  0.533E-03
  11.321  0.104E-04  0.518E-05  0.518E-05
  11.323  0.142E-07  0.712E-08  0.712E-08
  11.325  0.279E-07  0.140E-07  0.140E-07
  11.327  0.142E-04  0.710E-05  0.710E-05
  11.329  0.110E-02  0.548E-03  0.548E-03
  11.331  0.168E-01  0.838E-02  0.838E-02
  11.333  0.765E-01  0.382E-01  0.382E-01
  11.335  0.834E-01  0.417E-01  0.417E-01
  11.337  0.162E-01  0.810E-02  0.810E-02
  11.339  0.858E-02  0.429E-02  0.429E-02
  11.341  0.693E-02  0.347E-02  0.347E-02
  11.343  0.244E-01  0.122E-01  0.122E-01
  11.345  0.806E-01  0.403E-01  0.403E-01
  11.347  0.890E-01  0.445E-01  0.445E-01
  11.349  0.893E-01  0.446E-01  0.446E-01
  11.351  0.105E+00  0.523E-01  0.523E-01
  11.353  0.635E-01  0.317E-01  0.317E-01
  11.355  0.244E-01  0.122E-01  0.122E-01
  11.357  0.667E-01  0.333E-01  0.333E-01
  11.359  0.469E-01  0.234E-01  0.234E-01
  11.361  0.179E-01  0.897E-02  0.897E-02
  11.363  0.862E-02  0.431E-02  0.431E-02
  11.365  0.166E-01  0.831E-02  0.831E-02
  11.367  0.367E-01  0.183E-01  0.183E-01
  11.369  0.208E-01  0.104E-01  0.104E-01
  11.371  0.220E-02  0.110E-02  0.110E-02
  11.373  0.874E-04  0.437E-04  0.437E-04
  11.375  0.168E-02  0.840E-03  0.840E-03
  11.377  0.323E-01  0.162E-01  0.162E-01
  11.379  0.847E-01  0.424E-01  0.424E-01
  11.381  0.438E-01  0.219E-01  0.219E-01
  11.383  0.660E-01  0.330E-01  0.330E-01
  11.385  0.532E-01  0.266E-01  0.266E-01
  11.387  0.225E-01  0.113E-01  0.113E-01
  11.389  0.120E-01  0.598E-02  0.598E-02
  11.391  0.197E-02  0.984E-03  0.984E-03
  11.393  0.263E-02  0.131E-02  0.131E-02
  11.395  0.376E-01  0.188E-01  0.188E-01
  11.397  0.889E-01  0.445E-01  0.445E-01
  11.399  0.904E-01  0.452E-01  0.452E-01
  11.401  0.812E-01  0.406E-01  0.406E-01
  11.403  0.156E-01  0.780E-02  0.780E-02
  11.405  0.855E-02  0.428E-02  0.428E-02
  11.407  0.136E-01  0.680E-02  0.680E-02
  11.409  0.365E-02  0.182E-02  0.182E-02
  11.411  0.781E-02  0.391E-02  0.391E-02
  11.413  0.140E-01  0.700E-02  0.700E-02
  11.415  0.348E-02  0.174E-02  0.174E-02
  11.417  0.372E-02  0.186E-02  0.186E-02
  11.419  0.445E-01  0.223E-01  0.223E-01
  11.421  0.745E-01  0.372E-01  0.372E-01
  11.423  0.169E-01  0.846E-02  0.846E-02
  11.425  0.570E-02  0.285E-02  0.285E-02
  11.427  0.628E-01  0.314E-01  0.314E-01
  11.429  0.134E+00  0.671E-01  0.671E-01
  11.431  0.708E-01  0.354E-01  0.354E-01
  11.433  0.208E-01  0.104E-01  0.104E-01
  11.435  0.211E-01  0.106E-01  0.106E-01
  11.437  0.139E-01  0.696E-02  0.696E-02
  11.439  0.160E-01  0.798E-02  0.798E-02
  11.441  0.452E-01  0.226E-01  0.226E-01
  11.443  0.730E-01  0.365E-01  0.365E-01
  11.445  0.401E-01  0.201E-01  0.201E-01
  11.447  0.432E-01  0.216E-01  0.216E-01
  11.449  0.228E-01  0.114E-01  0.114E-01
  11.451  0.281E-02  0.141E-02  0.141E-02
  11.453  0.186E-01  0.930E-02  0.930E-02
  11.455  0.459E-01  0.230E-01  0.230E-01
  11.457  0.434E-01  0.217E-01  0.217E-01
  11.459  0.744E-01  0.372E-01  0.372E-01
  11.461  0.254E-01  0.127E-01  0.127E-01
  11.463  0.137E-02  0.685E-03  0.685E-03
  11.465  0.164E-02  0.818E-03  0.818E-03
  11.467  0.196E-01  0.981E-02  0.981E-02
  11.469  0.391E-01  0.196E-01  0.196E-01
  11.471  0.121E-01  0.607E-02  0.607E-02
  11.473  0.569E-03  0.285E-03  0.285E-03
  11.475  0.653E-03  0.327E-03  0.327E-03
  11.477  0.154E-01  0.771E-02  0.771E-02
  11.479  0.514E-01  0.257E-01  0.257E-01
  11.481  0.389E-01  0.195E-01  0.195E-01
  11.483  0.581E-01  0.290E-01  0.290E-01
  11.485  0.121E+00  0.604E-01  0.604E-01
  11.487  0.878E-01  0.439E-01  0.439E-01
  11.489  0.184E-01  0.921E-02  0.921E-02
  11.491  0.803E-02  0.401E-02  0.401E-02
  11.493  0.723E-01  0.361E-01  0.361E-01
  11.495  0.104E+00  0.518E-01  0.518E-01
  11.497  0.382E-01  0.191E-01  0.191E-01
  11.499  0.693E-01  0.346E-01  0.346E-01
  11.501  0.641E-01  0.320E-01  0.320E-01
  11.503  0.504E-01  0.252E-01  0.252E-01
  11.505  0.167E-01  0.833E-02  0.833E-02
  11.507  0.914E-02  0.457E-02  0.457E-02
  11.509  0.472E-01  0.236E-01  0.236E-01
  11.511  0.392E-01  0.196E-01  0.196E-01
  11.513  0.441E-02  0.220E-02  0.220E-02
  11.515  0.681E-04  0.341E-04  0.341E-04
  11.517  0.250E-04  0.125E-04  0.125E-04
  11.519  0.377E-03  0.188E-03  0.188E-03
  11.521  0.605E-02  0.303E-02  0.303E-02
  11.523  0.440E-01  0.220E-01  0.220E-01
  11.525  0.151E+00  0.753E-01  0.753E-01
  11.527  0.140E+00  0.702E-01  0.702E-01
  11.529  0.437E-01  0.219E-01  0.219E-01
  11.531  0.252E-01  0.126E-01  0.126E-01
  11.533  0.421E-02  0.210E-02  0.210E-02
  11.535  0.901E-02  0.451E-02  0.451E-02
  11.537  0.474E-01  0.237E-01  0.237E-01
  11.539  0.585E-01  0.292E-01  0.292E-01
  11.541  0.283E-01  0.141E-01  0.141E-01
  11.543  0.158E-01  0.791E-02  0.791E-02
  11.545  0.160E-01  0.800E-02  0.800E-02
  11.547  0.429E-01  0.215E-01  0.215E-01
  11.549  0.301E-01  0.150E-01  0.150E-01
  11.551  0.232E-01  0.116E-01  0.116E-01
  11.553  0.694E-01  0.347E-01  0.347E-01
  11.555  0.788E-01  0.394E-01  0.394E-01
  11.557  0.452E-01  0.226E-01  0.226E-01
  11.559  0.503E-02  0.252E-02  0.252E-02
  11.561  0.139E-02  0.693E-03  0.693E-03
  11.563  0.135E-01  0.677E-02  0.677E-02
  11.565  0.296E-01  0.148E-01  0.148E-01
  11.567  0.176E-01  0.879E-02  0.879E-02
  11.569  0.443E-01  0.221E-01  0.221E-01
  11.571  0.797E-01  0.398E-01  0.398E-01
  11.573  0.639E-01  0.319E-01  0.319E-01
  11.575  0.415E-01  0.208E-01  0.208E-01
  11.577  0.194E-01  0.972E-02  0.972E-02
  11.579  0.332E-01  0.166E-01  0.166E-01
  11.581  0.112E+00  0.558E-01  0.558E-01
  11.583  0.111E+00  0.556E-01  0.556E-01
  11.585  0.644E-01  0.322E-01  0.322E-01
  11.587  0.803E-01  0.402E-01  0.402E-01
  11.589  0.373E-01  0.186E-01  0.186E-01
  11.591  0.293E-01  0.146E-01  0.146E-01
  11.593  0.335E-01  0.167E-01  0.167E-01
  11.595  0.241E-01  0.120E-01  0.120E-01
  11.597  0.121E-01  0.606E-02  0.606E-02
  11.599  0.263E-01  0.131E-01  0.131E-01
  11.601  0.212E-01  0.106E-01  0.106E-01
  11.603  0.136E-01  0.678E-02  0.678E-02
  11.605  0.569E-01  0.284E-01  0.284E-01
  11.607  0.410E-01  0.205E-01  0.205E-01
  11.609  0.715E-02  0.358E-02  0.358E-02
  11.611  0.135E-01  0.677E-02  0.677E-02
  11.613  0.535E-01  0.268E-01  0.268E-01
  11.615  0.542E-01  0.271E-01  0.271E-01
  11.617  0.320E-01  0.160E-01  0.160E-01
  11.619  0.506E-02  0.253E-02  0.253E-02
  11.621  0.921E-03  0.461E-03  0.461E-03
  11.623  0.214E-01  0.107E-01  0.107E-01
  11.625  0.974E-01  0.487E-01  0.487E-01
  11.627  0.947E-01  0.473E-01  0.473E-01
