# E (eV)  dos(E)    pdos(E)
  -5.857  0.157E-03  0.157E-03
  -5.847  0.234E-01  0.233E-01
  -5.837  0.473E+00  0.471E+00
  -5.827  0.145E+01  0.144E+01
  -5.817  0.171E+01  0.170E+01
  -5.807  0.163E+01  0.162E+01
  -5.797  0.367E+00  0.365E+00
  -5.787  0.185E+00  0.184E+00
  -5.777  0.645E+00  0.642E+00
  -5.767  0.643E+00  0.641E+00
  -5.757  0.103E+01  0.103E+01
  -5.747  0.763E+00  0.760E+00
  -5.737  0.130E+00  0.129E+00
  -5.727  0.601E-01  0.599E-01
  -5.717  0.468E+00  0.467E+00
  -5.707  0.523E+00  0.521E+00
  -5.697  0.809E-01  0.806E-01
  -5.687  0.843E-01  0.840E-01
  -5.677  0.533E+00  0.531E+00
  -5.667  0.572E+00  0.570E+00
  -5.657  0.630E+00  0.627E+00
  -5.647  0.403E+00  0.402E+00
  -5.637  0.106E+00  0.106E+00
  -5.627  0.500E+00  0.498E+00
  -5.617  0.493E+00  0.491E+00
  -5.607  0.659E-01  0.656E-01
  -5.597  0.119E-02  0.119E-02
  -5.587  0.916E-05  0.913E-05
  -5.577  0.205E-02  0.204E-02
  -5.567  0.908E-01  0.905E-01
  -5.557  0.545E+00  0.543E+00
  -5.547  0.443E+00  0.441E+00
  -5.537  0.848E-01  0.845E-01
  -5.527  0.410E+00  0.409E+00
  -5.517  0.857E+00  0.854E+00
  -5.507  0.749E+00  0.746E+00
  -5.497  0.200E+00  0.199E+00
  -5.487  0.827E-02  0.824E-02
  -5.477  0.470E-04  0.468E-04
  -5.467  0.361E-07  0.360E-07
  -5.457  0.377E-11  0.375E-11
  -5.447  0.114E-09  0.114E-09
  -5.437  0.548E-06  0.546E-06
  -5.427  0.355E-03  0.354E-03
  -5.417  0.312E-01  0.310E-01
  -5.407  0.370E+00  0.369E+00
  -5.397  0.595E+00  0.593E+00
  -5.387  0.158E+00  0.158E+00
  -5.377  0.362E+00  0.361E+00
  -5.367  0.630E+00  0.628E+00
  -5.357  0.493E+00  0.491E+00
  -5.347  0.607E+00  0.604E+00
  -5.337  0.138E+00  0.137E+00
  -5.327  0.427E-02  0.426E-02
  -5.317  0.179E-04  0.178E-04
  -5.307  0.102E-07  0.101E-07
  -5.297  0.780E-12  0.777E-12
  -5.287  0.811E-17  0.807E-17
  -5.277  0.815E-18  0.812E-18
  -5.267  0.113E-12  0.113E-12
  -5.257  0.213E-08  0.212E-08
  -5.247  0.547E-05  0.545E-05
  -5.237  0.195E-02  0.194E-02
  -5.227  0.100E+00  0.996E-01
  -5.217  0.799E+00  0.796E+00
  -5.207  0.109E+01  0.109E+01
  -5.197  0.259E+00  0.258E+00
  -5.187  0.992E-02  0.988E-02
  -5.177  0.617E-04  0.614E-04
  -5.167  0.192E-02  0.191E-02
  -5.157  0.875E-01  0.871E-01
  -5.147  0.539E+00  0.537E+00
  -5.137  0.450E+00  0.448E+00
  -5.127  0.508E-01  0.506E-01
  -5.117  0.775E-03  0.772E-03
  -5.107  0.160E-05  0.160E-05
  -5.097  0.449E-09  0.447E-09
  -5.087  0.170E-13  0.169E-13
  -5.077  0.309E-12  0.308E-12
  -5.067  0.480E-08  0.478E-08
  -5.057  0.101E-04  0.100E-04
  -5.047  0.286E-02  0.285E-02
  -5.037  0.110E+00  0.110E+00
  -5.027  0.574E+00  0.571E+00
  -5.017  0.406E+00  0.405E+00
  -5.007  0.129E+00  0.129E+00
  -4.997  0.545E+00  0.543E+00
  -4.987  0.443E+00  0.441E+00
  -4.977  0.487E-01  0.484E-01
  -4.967  0.724E-03  0.721E-03
  -4.957  0.146E-05  0.145E-05
  -4.947  0.163E-08  0.163E-08
  -4.937  0.354E-05  0.352E-05
  -4.927  0.137E-02  0.136E-02
  -4.917  0.716E-01  0.713E-01
  -4.907  0.507E+00  0.505E+00
  -4.897  0.486E+00  0.484E+00
  -4.887  0.630E-01  0.628E-01
  -4.877  0.111E-02  0.110E-02
  -4.867  0.263E-05  0.262E-05
  -4.857  0.573E-06  0.570E-06
  -4.847  0.367E-03  0.365E-03
  -4.837  0.318E-01  0.317E-01
  -4.827  0.373E+00  0.372E+00
  -4.817  0.593E+00  0.591E+00
  -4.807  0.128E+00  0.127E+00
  -4.797  0.371E-02  0.370E-02
  -4.787  0.146E-04  0.146E-04
  -4.777  0.134E-05  0.134E-05
  -4.767  0.679E-03  0.676E-03
  -4.757  0.468E-01  0.466E-01
  -4.747  0.436E+00  0.434E+00
  -4.737  0.550E+00  0.548E+00
  -4.727  0.940E-01  0.935E-01
  -4.717  0.217E-02  0.216E-02
  -4.707  0.679E-05  0.676E-05
  -4.697  0.287E-08  0.286E-08
  -4.687  0.167E-12  0.167E-12
  -4.677  0.980E-10  0.976E-10
  -4.667  0.485E-06  0.483E-06
  -4.657  0.325E-03  0.324E-03
  -4.647  0.295E-01  0.293E-01
  -4.637  0.361E+00  0.360E+00
  -4.627  0.600E+00  0.597E+00
  -4.617  0.154E+00  0.153E+00
  -4.607  0.300E+00  0.299E+00
  -4.597  0.628E+00  0.625E+00
  -4.587  0.180E+00  0.180E+00
  -4.577  0.701E-02  0.698E-02
  -4.567  0.369E-04  0.368E-04
  -4.557  0.263E-07  0.262E-07
  -4.547  0.253E-11  0.252E-11
  -4.537  0.331E-16  0.329E-16
  -4.527  0.000E+00  0.000E+00
  -4.517  0.127E-15  0.127E-15
  -4.507  0.782E-11  0.779E-11
  -4.497  0.650E-07  0.647E-07
  -4.487  0.730E-04  0.727E-04
  -4.477  0.111E-01  0.111E-01
  -4.467  0.229E+00  0.228E+00
  -4.457  0.637E+00  0.634E+00
  -4.447  0.240E+00  0.239E+00
  -4.437  0.123E-01  0.122E-01
  -4.427  0.847E-04  0.843E-04
  -4.417  0.792E-07  0.788E-07
  -4.407  0.508E-08  0.506E-08
  -4.397  0.105E-04  0.105E-04
  -4.387  0.295E-02  0.294E-02
  -4.377  0.112E+00  0.112E+00
  -4.367  0.576E+00  0.574E+00
  -4.357  0.401E+00  0.399E+00
  -4.347  0.530E-01  0.528E-01
  -4.337  0.268E+00  0.267E+00
  -4.327  0.635E+00  0.632E+00
  -4.317  0.204E+00  0.203E+00
  -4.307  0.885E-02  0.881E-02
  -4.297  0.520E-04  0.518E-04
  -4.287  0.414E-07  0.412E-07
  -4.277  0.446E-11  0.444E-11
  -4.267  0.649E-16  0.647E-16
  -4.257  0.000E+00  0.000E+00
  -4.247  0.000E+00  0.000E+00
  -4.237  0.000E+00  0.000E+00
  -4.227  0.000E+00  0.000E+00
  -4.217  0.000E+00  0.000E+00
  -4.207  0.000E+00  0.000E+00
  -4.197  0.428E-13  0.426E-13
  -4.187  0.956E-09  0.952E-09
  -4.177  0.289E-05  0.288E-05
  -4.167  0.119E-02  0.118E-02
  -4.157  0.657E-01  0.654E-01
  -4.147  0.495E+00  0.493E+00
  -4.137  0.607E+00  0.604E+00
  -4.127  0.638E+00  0.635E+00
  -4.117  0.412E+00  0.411E+00
  -4.107  0.402E-01  0.400E-01
  -4.097  0.531E-03  0.529E-03
  -4.087  0.951E-06  0.947E-06
  -4.077  0.230E-09  0.229E-09
  -4.067  0.755E-14  0.752E-14
  -4.057  0.178E-13  0.178E-13
  -4.047  0.467E-09  0.465E-09
  -4.037  0.165E-05  0.165E-05
  -4.027  0.793E-03  0.790E-03
  -4.017  0.515E-01  0.512E-01
  -4.007  0.452E+00  0.450E+00
  -3.997  0.537E+00  0.535E+00
  -3.987  0.864E-01  0.860E-01
  -3.977  0.188E-02  0.187E-02
  -3.967  0.554E-05  0.552E-05
  -3.957  0.221E-08  0.220E-08
  -3.947  0.123E-12  0.122E-12
  -3.937  0.124E-09  0.124E-09
  -3.927  0.585E-06  0.582E-06
  -3.917  0.372E-03  0.371E-03
  -3.907  0.321E-01  0.320E-01
  -3.897  0.375E+00  0.374E+00
  -3.887  0.592E+00  0.590E+00
  -3.877  0.127E+00  0.126E+00
  -3.867  0.366E-02  0.365E-02
  -3.857  0.143E-04  0.143E-04
  -3.847  0.761E-08  0.758E-08
  -3.837  0.663E-07  0.660E-07
  -3.827  0.742E-04  0.738E-04
  -3.817  0.112E-01  0.112E-01
  -3.807  0.230E+00  0.229E+00
  -3.797  0.637E+00  0.634E+00
  -3.787  0.239E+00  0.238E+00
  -3.777  0.121E-01  0.121E-01
  -3.767  0.834E-04  0.830E-04
  -3.757  0.776E-07  0.772E-07
  -3.747  0.976E-11  0.971E-11
  -3.737  0.638E-13  0.636E-13
  -3.727  0.132E-08  0.132E-08
  -3.717  0.373E-05  0.371E-05
  -3.707  0.142E-02  0.141E-02
  -3.697  0.732E-01  0.729E-01
  -3.687  0.511E+00  0.509E+00
  -3.677  0.489E+00  0.488E+00
  -3.667  0.247E+00  0.246E+00
  -3.657  0.631E+00  0.628E+00
  -3.647  0.290E+00  0.289E+00
  -3.637  0.181E-01  0.180E-01
  -3.627  0.152E-03  0.152E-03
  -3.617  0.174E-06  0.173E-06
  -3.607  0.268E-10  0.267E-10
  -3.597  0.561E-15  0.559E-15
  -3.587  0.827E-13  0.824E-13
  -3.577  0.164E-08  0.163E-08
  -3.567  0.440E-05  0.438E-05
  -3.557  0.160E-02  0.159E-02
  -3.547  0.785E-01  0.782E-01
  -3.537  0.522E+00  0.520E+00
  -3.527  0.470E+00  0.468E+00
  -3.517  0.572E-01  0.570E-01
  -3.507  0.107E-02  0.107E-02
  -3.497  0.214E-01  0.213E-01
  -3.487  0.531E+00  0.529E+00
  -3.477  0.237E+01  0.236E+01
  -3.467  0.238E+01  0.237E+01
  -3.457  0.140E+01  0.139E+01
  -3.447  0.162E+01  0.162E+01
  -3.437  0.794E+00  0.792E+00
  -3.427  0.126E+01  0.126E+01
  -3.417  0.171E+01  0.171E+01
  -3.407  0.734E+00  0.732E+00
  -3.397  0.612E+00  0.611E+00
  -3.387  0.368E+00  0.367E+00
  -3.377  0.117E+01  0.117E+01
  -3.367  0.775E+00  0.773E+00
  -3.357  0.105E+00  0.104E+00
  -3.347  0.391E+00  0.390E+00
  -3.337  0.603E+00  0.601E+00
  -3.327  0.553E+00  0.551E+00
  -3.317  0.132E+01  0.131E+01
  -3.307  0.925E+00  0.922E+00
  -3.297  0.589E+00  0.587E+00
  -3.287  0.105E+00  0.104E+00
  -3.277  0.108E+00  0.108E+00
  -3.267  0.588E+00  0.586E+00
  -3.257  0.855E+00  0.853E+00
  -3.247  0.131E+01  0.131E+01
  -3.237  0.498E+00  0.496E+00
  -3.227  0.263E-01  0.262E-01
  -3.217  0.188E-03  0.187E-03
  -3.207  0.138E-05  0.137E-05
  -3.197  0.654E-03  0.652E-03
  -3.187  0.524E-01  0.522E-01
  -3.177  0.695E+00  0.693E+00
  -3.167  0.176E+01  0.175E+01
  -3.157  0.823E+00  0.820E+00
  -3.147  0.616E-01  0.614E-01
  -3.137  0.663E-03  0.661E-03
  -3.127  0.984E-06  0.981E-06
  -3.117  0.652E-09  0.650E-09
  -3.107  0.188E-05  0.187E-05
  -3.097  0.105E-02  0.105E-02
  -3.087  0.808E-01  0.806E-01
  -3.077  0.879E+00  0.876E+00
  -3.067  0.161E+01  0.161E+01
  -3.057  0.731E+00  0.729E+00
  -3.047  0.823E-01  0.820E-01
  -3.037  0.539E-01  0.536E-01
  -3.027  0.455E+00  0.452E+00
  -3.017  0.535E+00  0.532E+00
  -3.007  0.851E-01  0.847E-01
  -2.997  0.187E-02  0.186E-02
  -2.987  0.853E-02  0.850E-02
  -2.977  0.276E+00  0.275E+00
  -2.967  0.122E+01  0.121E+01
  -2.957  0.971E+00  0.968E+00
  -2.947  0.917E+00  0.913E+00
  -2.937  0.860E+00  0.857E+00
  -2.927  0.257E+00  0.256E+00
  -2.917  0.130E-01  0.129E-01
  -2.907  0.915E-04  0.911E-04
  -2.897  0.877E-07  0.874E-07
  -2.887  0.300E-06  0.299E-06
  -2.877  0.273E-03  0.272E-03
  -2.867  0.336E-01  0.335E-01
  -2.857  0.560E+00  0.558E+00
  -2.847  0.126E+01  0.126E+01
  -2.837  0.386E+00  0.385E+00
  -2.827  0.160E-01  0.160E-01
  -2.817  0.105E-01  0.105E-01
  -2.807  0.222E+00  0.221E+00
  -2.797  0.637E+00  0.635E+00
  -2.787  0.248E+00  0.247E+00
  -2.777  0.130E-01  0.130E-01
  -2.767  0.930E-04  0.926E-04
  -2.757  0.361E-05  0.359E-05
  -2.747  0.166E-02  0.165E-02
  -2.737  0.106E+00  0.105E+00
  -2.727  0.913E+00  0.910E+00
  -2.717  0.107E+01  0.106E+01
  -2.707  0.169E+00  0.168E+00
  -2.697  0.361E-02  0.360E-02
  -2.687  0.105E-04  0.104E-04
  -2.677  0.359E-05  0.358E-05
  -2.667  0.138E-02  0.138E-02
  -2.657  0.720E-01  0.717E-01
  -2.647  0.508E+00  0.506E+00
  -2.637  0.486E+00  0.484E+00
  -2.627  0.136E+00  0.136E+00
  -2.617  0.515E+00  0.513E+00
  -2.607  0.592E+00  0.590E+00
  -2.597  0.996E+00  0.991E+00
  -2.587  0.170E+01  0.169E+01
  -2.577  0.610E+00  0.608E+00
  -2.567  0.348E-01  0.347E-01
  -2.557  0.281E-03  0.280E-03
  -2.547  0.310E-06  0.309E-06
  -2.537  0.465E-10  0.463E-10
  -2.527  0.515E-12  0.513E-12
  -2.517  0.725E-08  0.722E-08
  -2.507  0.138E-04  0.138E-04
  -2.497  0.357E-02  0.356E-02
  -2.487  0.125E+00  0.124E+00
  -2.477  0.590E+00  0.588E+00
  -2.467  0.388E+00  0.387E+00
  -2.457  0.338E+00  0.336E+00
  -2.447  0.123E+01  0.122E+01
  -2.437  0.668E+00  0.666E+00
  -2.427  0.493E-01  0.491E-01
  -2.417  0.492E-03  0.490E-03
  -2.407  0.664E-06  0.661E-06
  -2.397  0.121E-09  0.121E-09
  -2.387  0.300E-14  0.299E-14
  -2.377  0.127E-16  0.127E-16
  -2.367  0.114E-11  0.113E-11
  -2.357  0.138E-07  0.137E-07
  -2.347  0.226E-04  0.225E-04
  -2.337  0.503E-02  0.501E-02
  -2.327  0.156E+00  0.155E+00
  -2.317  0.821E+00  0.817E+00
  -2.307  0.175E+01  0.175E+01
  -2.297  0.279E+01  0.278E+01
  -2.287  0.248E+01  0.247E+01
  -2.277  0.162E+01  0.161E+01
  -2.267  0.838E+00  0.835E+00
  -2.257  0.126E+01  0.125E+01
  -2.247  0.682E+00  0.679E+00
  -2.237  0.448E+00  0.446E+00
  -2.227  0.127E+01  0.126E+01
  -2.217  0.546E+00  0.544E+00
  -2.207  0.137E+00  0.136E+00
  -2.197  0.913E+00  0.909E+00
  -2.187  0.120E+01  0.119E+01
  -2.177  0.115E+01  0.115E+01
  -2.167  0.114E+01  0.114E+01
  -2.157  0.117E+01  0.116E+01
  -2.147  0.143E+01  0.143E+01
  -2.137  0.695E+00  0.690E+00
  -2.127  0.209E+00  0.208E+00
  -2.117  0.102E+01  0.101E+01
  -2.107  0.161E+01  0.161E+01
  -2.097  0.611E+00  0.609E+00
  -2.087  0.546E+00  0.543E+00
  -2.077  0.337E+01  0.335E+01
  -2.067  0.415E+01  0.414E+01
  -2.057  0.221E+01  0.220E+01
  -2.047  0.144E+01  0.144E+01
  -2.037  0.140E+01  0.139E+01
  -2.027  0.915E+00  0.911E+00
  -2.017  0.154E+01  0.153E+01
  -2.007  0.127E+01  0.126E+01
  -1.997  0.122E+01  0.121E+01
  -1.987  0.104E+01  0.103E+01
  -1.977  0.292E+00  0.291E+00
  -1.967  0.104E+01  0.103E+01
  -1.957  0.127E+01  0.126E+01
  -1.947  0.791E+00  0.788E+00
  -1.937  0.777E+00  0.773E+00
  -1.927  0.127E+01  0.126E+01
  -1.917  0.492E+00  0.490E+00
  -1.907  0.886E+00  0.882E+00
  -1.897  0.178E+01  0.177E+01
  -1.887  0.146E+01  0.146E+01
  -1.877  0.263E+00  0.261E+00
  -1.867  0.942E-01  0.937E-01
  -1.857  0.946E+00  0.942E+00
  -1.847  0.178E+01  0.177E+01
  -1.837  0.556E+00  0.553E+00
  -1.827  0.134E+00  0.133E+00
  -1.817  0.627E+00  0.624E+00
  -1.807  0.113E+01  0.112E+01
  -1.797  0.130E+01  0.129E+01
  -1.787  0.736E+00  0.732E+00
  -1.777  0.541E+00  0.538E+00
  -1.767  0.239E+00  0.238E+00
  -1.757  0.111E+01  0.111E+01
  -1.747  0.171E+01  0.170E+01
  -1.737  0.963E+00  0.958E+00
  -1.727  0.630E+00  0.626E+00
  -1.717  0.721E+00  0.716E+00
  -1.707  0.128E+01  0.127E+01
  -1.697  0.244E+01  0.243E+01
  -1.687  0.249E+01  0.247E+01
  -1.677  0.316E+01  0.314E+01
  -1.667  0.716E+01  0.712E+01
  -1.657  0.605E+01  0.601E+01
  -1.647  0.353E+01  0.351E+01
  -1.637  0.340E+01  0.338E+01
  -1.627  0.347E+01  0.345E+01
  -1.617  0.224E+01  0.222E+01
  -1.607  0.207E+01  0.206E+01
  -1.597  0.166E+01  0.165E+01
  -1.587  0.196E+01  0.194E+01
  -1.577  0.206E+01  0.205E+01
  -1.567  0.280E+01  0.278E+01
  -1.557  0.254E+01  0.253E+01
  -1.547  0.197E+01  0.196E+01
  -1.537  0.165E+01  0.164E+01
  -1.527  0.197E+01  0.196E+01
  -1.517  0.271E+01  0.269E+01
  -1.507  0.358E+01  0.356E+01
  -1.497  0.490E+01  0.488E+01
  -1.487  0.215E+01  0.213E+01
  -1.477  0.733E+00  0.729E+00
  -1.467  0.169E+00  0.168E+00
  -1.457  0.108E-01  0.107E-01
  -1.447  0.167E+00  0.166E+00
  -1.437  0.110E+01  0.109E+01
  -1.427  0.163E+01  0.162E+01
  -1.417  0.471E+00  0.469E+00
  -1.407  0.299E-01  0.298E-01
  -1.397  0.202E+00  0.201E+00
  -1.387  0.655E+00  0.651E+00
  -1.377  0.711E+00  0.707E+00
  -1.367  0.129E+01  0.128E+01
  -1.357  0.500E+00  0.497E+00
  -1.347  0.123E+00  0.123E+00
  -1.337  0.560E+00  0.557E+00
  -1.327  0.637E+00  0.633E+00
  -1.317  0.118E+01  0.118E+01
  -1.307  0.102E+01  0.101E+01
  -1.297  0.720E+00  0.716E+00
  -1.287  0.496E+00  0.493E+00
  -1.277  0.116E+01  0.115E+01
  -1.267  0.157E+01  0.156E+01
  -1.257  0.448E+00  0.445E+00
  -1.247  0.544E-01  0.542E-01
  -1.237  0.572E+00  0.569E+00
  -1.227  0.137E+01  0.136E+01
  -1.217  0.953E+00  0.948E+00
  -1.207  0.713E+00  0.709E+00
  -1.197  0.125E+01  0.125E+01
  -1.187  0.762E+00  0.758E+00
  -1.177  0.913E+00  0.908E+00
  -1.167  0.187E+01  0.186E+01
  -1.157  0.106E+01  0.105E+01
  -1.147  0.185E+01  0.184E+01
  -1.137  0.136E+01  0.135E+01
  -1.127  0.144E+01  0.144E+01
  -1.117  0.188E+01  0.187E+01
  -1.107  0.251E+01  0.249E+01
  -1.097  0.265E+01  0.263E+01
  -1.087  0.439E+01  0.436E+01
  -1.077  0.607E+01  0.604E+01
  -1.067  0.214E+01  0.213E+01
  -1.057  0.128E+00  0.127E+00
  -1.047  0.238E+00  0.237E+00
  -1.037  0.117E+01  0.116E+01
  -1.027  0.777E+00  0.772E+00
  -1.017  0.702E-01  0.697E-01
  -1.007  0.262E-01  0.261E-01
  -0.997  0.546E+00  0.543E+00
  -0.987  0.203E+01  0.201E+01
  -0.977  0.164E+01  0.163E+01
  -0.967  0.281E+00  0.279E+00
  -0.957  0.247E+00  0.245E+00
  -0.947  0.143E+01  0.142E+01
  -0.937  0.147E+01  0.146E+01
  -0.927  0.243E+00  0.242E+00
  -0.917  0.338E-01  0.336E-01
  -0.907  0.512E+00  0.509E+00
  -0.897  0.127E+01  0.127E+01
  -0.887  0.479E+00  0.476E+00
  -0.877  0.809E+00  0.803E+00
  -0.867  0.237E+01  0.235E+01
  -0.857  0.317E+01  0.314E+01
  -0.847  0.413E+01  0.409E+01
  -0.837  0.452E+01  0.447E+01
  -0.827  0.360E+01  0.357E+01
  -0.817  0.405E+01  0.402E+01
  -0.807  0.254E+01  0.251E+01
  -0.797  0.154E+01  0.152E+01
  -0.787  0.115E+01  0.114E+01
  -0.777  0.288E+01  0.285E+01
  -0.767  0.270E+01  0.268E+01
  -0.757  0.706E+00  0.699E+00
  -0.747  0.142E+01  0.141E+01
  -0.737  0.144E+01  0.142E+01
  -0.727  0.694E+00  0.688E+00
  -0.717  0.193E+01  0.191E+01
  -0.707  0.305E+01  0.302E+01
  -0.697  0.135E+01  0.134E+01
  -0.687  0.125E+01  0.124E+01
  -0.677  0.226E+01  0.223E+01
  -0.667  0.351E+01  0.348E+01
  -0.657  0.461E+01  0.457E+01
  -0.647  0.256E+01  0.254E+01
  -0.637  0.472E+00  0.468E+00
  -0.627  0.208E-01  0.206E-01
  -0.617  0.159E-03  0.158E-03
  -0.607  0.177E-06  0.176E-06
  -0.597  0.292E-08  0.290E-08
  -0.587  0.708E-05  0.704E-05
  -0.577  0.243E-02  0.242E-02
  -0.567  0.121E+00  0.120E+00
  -0.557  0.899E+00  0.891E+00
  -0.547  0.104E+01  0.103E+01
  -0.537  0.189E+00  0.187E+00
  -0.527  0.520E-02  0.515E-02
  -0.517  0.208E-04  0.205E-04
  -0.507  0.116E-07  0.115E-07
  -0.497  0.901E-12  0.890E-12
  -0.487  0.945E-17  0.934E-17
  -0.477  0.000E+00  0.000E+00
  -0.467  0.000E+00  0.000E+00
  -0.457  0.000E+00  0.000E+00
  -0.447  0.000E+00  0.000E+00
  -0.437  0.000E+00  0.000E+00
  -0.427  0.000E+00  0.000E+00
  -0.417  0.000E+00  0.000E+00
  -0.407  0.000E+00  0.000E+00
  -0.397  0.000E+00  0.000E+00
  -0.387  0.000E+00  0.000E+00
  -0.377  0.000E+00  0.000E+00
  -0.367  0.000E+00  0.000E+00
  -0.357  0.000E+00  0.000E+00
  -0.347  0.000E+00  0.000E+00
  -0.337  0.000E+00  0.000E+00
  -0.327  0.000E+00  0.000E+00
  -0.317  0.000E+00  0.000E+00
  -0.307  0.000E+00  0.000E+00
  -0.297  0.000E+00  0.000E+00
  -0.287  0.295E-13  0.293E-13
  -0.277  0.705E-09  0.700E-09
  -0.267  0.228E-05  0.227E-05
  -0.257  0.100E-02  0.995E-03
  -0.247  0.600E-01  0.596E-01
  -0.237  0.525E+00  0.522E+00
  -0.227  0.963E+00  0.955E+00
  -0.217  0.618E+00  0.611E+00
  -0.207  0.905E-01  0.895E-01
  -0.197  0.198E-02  0.196E-02
  -0.187  0.595E-05  0.588E-05
  -0.177  0.244E-08  0.241E-08
  -0.167  0.125E-06  0.124E-06
  -0.157  0.119E-03  0.118E-03
  -0.147  0.153E-01  0.152E-01
  -0.137  0.268E+00  0.266E+00
  -0.127  0.634E+00  0.629E+00
  -0.117  0.203E+00  0.202E+00
  -0.107  0.880E-02  0.873E-02
  -0.097  0.516E-04  0.512E-04
  -0.087  0.409E-07  0.406E-07
  -0.077  0.440E-11  0.436E-11
  -0.067  0.639E-16  0.634E-16
  -0.057  0.000E+00  0.000E+00
  -0.047  0.000E+00  0.000E+00
  -0.037  0.000E+00  0.000E+00
  -0.027  0.000E+00  0.000E+00
  -0.017  0.000E+00  0.000E+00
  -0.007  0.000E+00  0.000E+00
   0.003  0.000E+00  0.000E+00
   0.013  0.000E+00  0.000E+00
   0.023  0.000E+00  0.000E+00
   0.033  0.000E+00  0.000E+00
   0.043  0.000E+00  0.000E+00
   0.053  0.000E+00  0.000E+00
   0.063  0.000E+00  0.000E+00
   0.073  0.858E-14  0.852E-14
   0.083  0.256E-09  0.254E-09
   0.093  0.103E-05  0.103E-05
   0.103  0.564E-03  0.560E-03
   0.113  0.417E-01  0.414E-01
   0.123  0.417E+00  0.414E+00
   0.133  0.565E+00  0.561E+00
   0.143  0.103E+00  0.103E+00
   0.153  0.277E-02  0.275E-02
   0.163  0.221E-01  0.218E-01
   0.173  0.318E+00  0.314E+00
   0.183  0.620E+00  0.613E+00
   0.193  0.164E+00  0.162E+00
   0.203  0.585E-02  0.578E-02
   0.213  0.283E-04  0.280E-04
   0.223  0.185E-07  0.183E-07
   0.233  0.164E-11  0.162E-11
   0.243  0.196E-16  0.194E-16
   0.253  0.000E+00  0.000E+00
   0.263  0.000E+00  0.000E+00
   0.273  0.000E+00  0.000E+00
   0.283  0.000E+00  0.000E+00
   0.293  0.000E+00  0.000E+00
   0.303  0.000E+00  0.000E+00
   0.313  0.000E+00  0.000E+00
   0.323  0.000E+00  0.000E+00
   0.333  0.000E+00  0.000E+00
   0.343  0.000E+00  0.000E+00
   0.353  0.651E-16  0.645E-16
   0.363  0.446E-11  0.443E-11
   0.373  0.414E-07  0.411E-07
   0.383  0.521E-04  0.516E-04
   0.393  0.885E-02  0.878E-02
   0.403  0.204E+00  0.202E+00
   0.413  0.635E+00  0.629E+00
   0.423  0.267E+00  0.265E+00
   0.433  0.153E-01  0.151E-01
   0.443  0.118E-03  0.117E-03
   0.453  0.123E-06  0.122E-06
   0.463  0.174E-10  0.173E-10
   0.473  0.873E-14  0.866E-14
   0.483  0.251E-09  0.249E-09
   0.493  0.102E-05  0.101E-05
   0.503  0.558E-03  0.554E-03
   0.513  0.414E-01  0.411E-01
   0.523  0.416E+00  0.413E+00
   0.533  0.565E+00  0.561E+00
   0.543  0.104E+00  0.103E+00
   0.553  0.259E-02  0.257E-02
   0.563  0.872E-05  0.865E-05
   0.573  0.398E-08  0.395E-08
   0.583  0.391E-12  0.387E-12
   0.593  0.259E-08  0.257E-08
   0.603  0.627E-05  0.620E-05
   0.613  0.205E-02  0.203E-02
   0.623  0.910E-01  0.899E-01
   0.633  0.545E+00  0.539E+00
   0.643  0.442E+00  0.437E+00
   0.653  0.486E-01  0.480E-01
   0.663  0.722E-03  0.713E-03
   0.673  0.145E-05  0.143E-05
   0.683  0.395E-09  0.390E-09
   0.693  0.145E-13  0.144E-13
   0.703  0.000E+00  0.000E+00
   0.713  0.000E+00  0.000E+00
   0.723  0.000E+00  0.000E+00
   0.733  0.000E+00  0.000E+00
   0.743  0.000E+00  0.000E+00
   0.753  0.000E+00  0.000E+00
   0.763  0.000E+00  0.000E+00
   0.773  0.000E+00  0.000E+00
   0.783  0.000E+00  0.000E+00
   0.793  0.000E+00  0.000E+00
   0.803  0.000E+00  0.000E+00
   0.813  0.000E+00  0.000E+00
   0.823  0.000E+00  0.000E+00
   0.833  0.000E+00  0.000E+00
   0.843  0.000E+00  0.000E+00
   0.853  0.000E+00  0.000E+00
   0.863  0.000E+00  0.000E+00
   0.873  0.000E+00  0.000E+00
   0.883  0.000E+00  0.000E+00
   0.893  0.000E+00  0.000E+00
   0.903  0.200E-16  0.198E-16
   0.913  0.170E-11  0.168E-11
   0.923  0.198E-07  0.197E-07
   0.933  0.321E-04  0.318E-04
   0.943  0.731E-02  0.724E-02
   0.953  0.238E+00  0.236E+00
   0.963  0.113E+01  0.112E+01
   0.973  0.796E+00  0.789E+00
   0.983  0.822E-01  0.815E-01
   0.993  0.123E-02  0.122E-02
   1.003  0.262E-05  0.260E-05
   1.013  0.781E-09  0.774E-09
   1.023  0.321E-13  0.318E-13
   1.033  0.000E+00  0.000E+00
   1.043  0.000E+00  0.000E+00
   1.053  0.000E+00  0.000E+00
   1.063  0.000E+00  0.000E+00
   1.073  0.198E-15  0.196E-15
   1.083  0.113E-10  0.112E-10
   1.093  0.871E-07  0.861E-07
   1.103  0.910E-04  0.899E-04
   1.113  0.129E-01  0.127E-01
   1.123  0.246E+00  0.243E+00
   1.133  0.637E+00  0.630E+00
   1.143  0.223E+00  0.221E+00
   1.153  0.106E-01  0.105E-01
   1.163  0.680E-04  0.672E-04
   1.173  0.590E-07  0.583E-07
   1.183  0.694E-11  0.686E-11
   1.193  0.110E-15  0.109E-15
   1.203  0.000E+00  0.000E+00
   1.213  0.000E+00  0.000E+00
   1.223  0.000E+00  0.000E+00
   1.233  0.000E+00  0.000E+00
   1.243  0.000E+00  0.000E+00
   1.253  0.000E+00  0.000E+00
   1.263  0.000E+00  0.000E+00
   1.273  0.000E+00  0.000E+00
   1.283  0.000E+00  0.000E+00
   1.293  0.000E+00  0.000E+00
   1.303  0.000E+00  0.000E+00
   1.313  0.000E+00  0.000E+00
   1.323  0.000E+00  0.000E+00
   1.333  0.000E+00  0.000E+00
   1.343  0.000E+00  0.000E+00
   1.353  0.000E+00  0.000E+00
   1.363  0.000E+00  0.000E+00
   1.373  0.000E+00  0.000E+00
   1.383  0.202E-15  0.200E-15
   1.393  0.115E-10  0.114E-10
   1.403  0.883E-07  0.874E-07
   1.413  0.919E-04  0.910E-04
   1.423  0.129E-01  0.128E-01
   1.433  0.247E+00  0.244E+00
   1.443  0.637E+00  0.631E+00
   1.453  0.222E+00  0.220E+00
   1.463  0.105E-01  0.104E-01
   1.473  0.672E-04  0.666E-04
   1.483  0.180E-06  0.179E-06
   1.493  0.117E-03  0.116E-03
   1.503  0.152E-01  0.150E-01
   1.513  0.267E+00  0.264E+00
   1.523  0.635E+00  0.628E+00
   1.533  0.204E+00  0.202E+00
   1.543  0.889E-02  0.879E-02
   1.553  0.524E-04  0.518E-04
   1.563  0.418E-07  0.413E-07
   1.573  0.451E-11  0.446E-11
   1.583  0.658E-16  0.651E-16
   1.593  0.000E+00  0.000E+00
   1.603  0.404E-14  0.399E-14
   1.613  0.137E-09  0.136E-09
   1.623  0.633E-06  0.626E-06
   1.633  0.395E-03  0.390E-03
   1.643  0.333E-01  0.329E-01
   1.653  0.381E+00  0.376E+00
   1.663  0.589E+00  0.581E+00
   1.673  0.133E+00  0.131E+00
   1.683  0.244E+00  0.242E+00
   1.693  0.101E+01  0.101E+01
   1.703  0.853E+00  0.848E+00
   1.713  0.139E+00  0.139E+00
   1.723  0.368E-02  0.365E-02
   1.733  0.267E-04  0.266E-04
   1.743  0.417E-02  0.414E-02
   1.753  0.185E+00  0.183E+00
   1.763  0.121E+01  0.120E+01
   1.773  0.262E+01  0.260E+01
   1.783  0.397E+01  0.395E+01
   1.793  0.368E+01  0.365E+01
   1.803  0.660E+01  0.656E+01
   1.813  0.410E+01  0.408E+01
   1.823  0.225E+01  0.223E+01
   1.833  0.287E+01  0.285E+01
   1.843  0.316E+01  0.314E+01
   1.853  0.229E+01  0.228E+01
   1.863  0.196E+01  0.195E+01
   1.873  0.187E+01  0.186E+01
   1.883  0.204E+01  0.203E+01
   1.893  0.155E+01  0.155E+01
   1.903  0.440E+00  0.437E+00
   1.913  0.106E+01  0.105E+01
   1.923  0.185E+01  0.184E+01
   1.933  0.190E+01  0.189E+01
   1.943  0.187E+01  0.186E+01
   1.953  0.195E+01  0.194E+01
   1.963  0.229E+01  0.227E+01
   1.973  0.381E+01  0.379E+01
   1.983  0.327E+01  0.325E+01
   1.993  0.147E+01  0.146E+01
   2.003  0.723E+00  0.718E+00
   2.013  0.135E+01  0.134E+01
   2.023  0.242E+01  0.240E+01
   2.033  0.732E+00  0.728E+00
   2.043  0.934E-01  0.929E-01
   2.053  0.891E+00  0.886E+00
   2.063  0.189E+01  0.188E+01
   2.073  0.742E+00  0.736E+00
   2.083  0.663E+00  0.655E+00
   2.093  0.531E+00  0.526E+00
   2.103  0.128E+01  0.127E+01
   2.113  0.147E+01  0.146E+01
   2.123  0.122E+01  0.122E+01
   2.133  0.417E+00  0.415E+00
   2.143  0.140E+01  0.139E+01
   2.153  0.234E+01  0.233E+01
   2.163  0.633E+00  0.629E+00
   2.173  0.267E-01  0.265E-01
   2.183  0.213E-01  0.212E-01
   2.193  0.510E+00  0.506E+00
   2.203  0.200E+01  0.199E+01
   2.213  0.169E+01  0.167E+01
   2.223  0.745E+00  0.739E+00
   2.233  0.587E+00  0.583E+00
   2.243  0.529E+00  0.525E+00
   2.253  0.292E+01  0.290E+01
   2.263  0.356E+01  0.354E+01
   2.273  0.107E+01  0.106E+01
   2.283  0.102E+01  0.101E+01
   2.293  0.102E+01  0.101E+01
   2.303  0.281E+00  0.279E+00
   2.313  0.118E+01  0.117E+01
   2.323  0.210E+01  0.209E+01
   2.333  0.117E+01  0.117E+01
   2.343  0.716E+00  0.711E+00
   2.353  0.350E+00  0.348E+00
   2.363  0.593E+00  0.589E+00
   2.373  0.212E+01  0.211E+01
   2.383  0.218E+01  0.217E+01
   2.393  0.150E+01  0.149E+01
   2.403  0.486E+00  0.483E+00
   2.413  0.703E+00  0.698E+00
   2.423  0.966E+00  0.960E+00
   2.433  0.702E+00  0.698E+00
   2.443  0.123E+01  0.122E+01
   2.453  0.867E+00  0.861E+00
   2.463  0.813E+00  0.808E+00
   2.473  0.146E+01  0.145E+01
   2.483  0.102E+01  0.102E+01
   2.493  0.619E+00  0.612E+00
   2.503  0.503E+00  0.496E+00
   2.513  0.512E+00  0.509E+00
   2.523  0.128E+01  0.127E+01
   2.533  0.487E+00  0.484E+00
   2.543  0.253E-01  0.251E-01
   2.553  0.220E-01  0.219E-01
   2.563  0.530E+00  0.526E+00
   2.573  0.186E+01  0.185E+01
   2.583  0.125E+01  0.124E+01
   2.593  0.750E+00  0.745E+00
   2.603  0.935E+00  0.929E+00
   2.613  0.160E+01  0.159E+01
   2.623  0.122E+01  0.122E+01
   2.633  0.150E+01  0.149E+01
   2.643  0.115E+01  0.114E+01
   2.653  0.435E+00  0.429E+00
   2.663  0.242E+00  0.240E+00
   2.673  0.144E+01  0.143E+01
   2.683  0.152E+01  0.150E+01
   2.693  0.533E+00  0.530E+00
   2.703  0.131E+01  0.130E+01
   2.713  0.119E+01  0.118E+01
   2.723  0.523E+00  0.520E+00
   2.733  0.588E-01  0.585E-01
   2.743  0.975E-03  0.968E-03
   2.753  0.201E-04  0.198E-04
   2.763  0.440E-02  0.434E-02
   2.773  0.161E+00  0.159E+00
   2.783  0.109E+01  0.107E+01
   2.793  0.198E+01  0.197E+01
   2.803  0.175E+01  0.174E+01
   2.813  0.648E+00  0.644E+00
   2.823  0.353E+00  0.350E+00
   2.833  0.928E+00  0.922E+00
   2.843  0.809E+00  0.804E+00
   2.853  0.185E+00  0.184E+00
   2.863  0.685E-02  0.681E-02
   2.873  0.744E-04  0.739E-04
   2.883  0.922E-02  0.916E-02
   2.893  0.311E+00  0.309E+00
   2.903  0.173E+01  0.172E+01
   2.913  0.241E+01  0.239E+01
   2.923  0.183E+01  0.181E+01
   2.933  0.994E+00  0.986E+00
   2.943  0.590E+00  0.584E+00
   2.953  0.483E+00  0.480E+00
   2.963  0.662E+00  0.657E+00
   2.973  0.645E+00  0.640E+00
   2.983  0.477E+00  0.473E+00
   2.993  0.453E+00  0.450E+00
   3.003  0.127E+01  0.126E+01
   3.013  0.549E+00  0.545E+00
   3.023  0.260E+00  0.258E+00
   3.033  0.116E+01  0.116E+01
   3.043  0.101E+01  0.101E+01
   3.053  0.132E+01  0.130E+01
   3.063  0.161E+01  0.159E+01
   3.073  0.140E+01  0.139E+01
   3.083  0.168E+01  0.167E+01
   3.093  0.203E+01  0.201E+01
   3.103  0.791E+00  0.786E+00
   3.113  0.582E-01  0.578E-01
   3.123  0.625E-03  0.621E-03
   3.133  0.134E-02  0.133E-02
   3.143  0.108E+00  0.108E+00
   3.153  0.129E+01  0.128E+01
   3.163  0.300E+01  0.297E+01
   3.173  0.263E+01  0.261E+01
   3.183  0.836E+00  0.831E+00
   3.193  0.159E+00  0.157E+00
   3.203  0.571E+00  0.561E+00
   3.213  0.480E+00  0.473E+00
   3.223  0.115E+01  0.114E+01
   3.233  0.293E+01  0.291E+01
   3.243  0.142E+01  0.141E+01
   3.253  0.131E+00  0.131E+00
   3.263  0.379E+00  0.377E+00
   3.273  0.271E+01  0.269E+01
   3.283  0.598E+01  0.594E+01
   3.293  0.573E+01  0.570E+01
   3.303  0.365E+01  0.363E+01
   3.313  0.226E+01  0.225E+01
   3.323  0.965E+00  0.959E+00
   3.333  0.127E+01  0.126E+01
   3.343  0.152E+01  0.151E+01
   3.353  0.200E+01  0.199E+01
   3.363  0.108E+01  0.107E+01
   3.373  0.128E+01  0.126E+01
   3.383  0.660E+00  0.654E+00
   3.393  0.136E+01  0.135E+01
   3.403  0.179E+01  0.178E+01
   3.413  0.146E+01  0.145E+01
   3.423  0.217E+01  0.216E+01
   3.433  0.181E+01  0.180E+01
   3.443  0.336E+00  0.334E+00
   3.453  0.308E+00  0.306E+00
   3.463  0.627E+00  0.623E+00
   3.473  0.179E+00  0.178E+00
   3.483  0.111E+00  0.110E+00
   3.493  0.947E+00  0.941E+00
   3.503  0.173E+01  0.172E+01
   3.513  0.803E+00  0.797E+00
   3.523  0.965E+00  0.957E+00
   3.533  0.220E+01  0.218E+01
   3.543  0.306E+01  0.303E+01
   3.553  0.216E+01  0.214E+01
   3.563  0.526E+00  0.521E+00
   3.573  0.551E+00  0.548E+00
   3.583  0.909E+00  0.903E+00
   3.593  0.133E+01  0.132E+01
   3.603  0.523E+00  0.520E+00
   3.613  0.287E+00  0.285E+00
   3.623  0.636E+00  0.632E+00
   3.633  0.256E+00  0.254E+00
   3.643  0.741E+00  0.735E+00
   3.653  0.233E+01  0.231E+01
   3.663  0.302E+01  0.299E+01
   3.673  0.296E+01  0.293E+01
   3.683  0.103E+01  0.102E+01
   3.693  0.297E+00  0.295E+00
   3.703  0.154E+01  0.153E+01
   3.713  0.333E+01  0.331E+01
   3.723  0.322E+01  0.320E+01
   3.733  0.680E+00  0.676E+00
   3.743  0.164E+00  0.162E+00
   3.753  0.108E+01  0.107E+01
   3.763  0.177E+01  0.174E+01
   3.773  0.147E+01  0.146E+01
   3.783  0.104E+01  0.103E+01
   3.793  0.143E+00  0.142E+00
   3.803  0.271E-02  0.269E-02
   3.813  0.459E-03  0.456E-03
   3.823  0.546E-01  0.542E-01
   3.833  0.957E+00  0.950E+00
   3.843  0.249E+01  0.247E+01
   3.853  0.979E+00  0.972E+00
   3.863  0.402E+00  0.398E+00
   3.873  0.128E+01  0.127E+01
   3.883  0.997E+00  0.988E+00
   3.893  0.627E+00  0.622E+00
   3.903  0.196E+00  0.194E+00
   3.913  0.804E+00  0.798E+00
   3.923  0.115E+01  0.114E+01
   3.933  0.225E+00  0.223E+00
   3.943  0.114E-01  0.112E-01
   3.953  0.158E+00  0.155E+00
   3.963  0.638E+00  0.626E+00
   3.973  0.641E+00  0.631E+00
   3.983  0.668E+00  0.661E+00
   3.993  0.642E+00  0.636E+00
   4.003  0.152E+01  0.151E+01
   4.013  0.112E+01  0.111E+01
   4.023  0.478E+00  0.474E+00
   4.033  0.116E+01  0.115E+01
   4.043  0.801E+00  0.794E+00
   4.053  0.754E-01  0.748E-01
   4.063  0.206E-01  0.204E-01
   4.073  0.320E+00  0.317E+00
   4.083  0.105E+01  0.104E+01
   4.093  0.145E+01  0.144E+01
   4.103  0.521E+00  0.517E+00
   4.113  0.282E-01  0.279E-01
   4.123  0.208E-03  0.207E-03
   4.133  0.209E-06  0.207E-06
   4.143  0.140E-08  0.138E-08
   4.153  0.513E-05  0.508E-05
   4.163  0.265E-02  0.262E-02
   4.173  0.189E+00  0.187E+00
   4.183  0.192E+01  0.190E+01
   4.193  0.290E+01  0.287E+01
   4.203  0.108E+01  0.107E+01
   4.213  0.585E+00  0.576E+00
   4.223  0.100E+00  0.990E-01
   4.233  0.532E-02  0.526E-02
   4.243  0.148E+00  0.146E+00
   4.253  0.102E+01  0.101E+01
   4.263  0.961E+00  0.951E+00
   4.273  0.221E+00  0.219E+00
   4.283  0.134E+01  0.132E+01
   4.293  0.260E+01  0.256E+01
   4.303  0.123E+01  0.121E+01
   4.313  0.360E+00  0.352E+00
   4.323  0.253E-01  0.248E-01
   4.333  0.338E-02  0.334E-02
   4.343  0.116E+00  0.114E+00
   4.353  0.580E+00  0.574E+00
   4.363  0.396E+00  0.391E+00
   4.373  0.126E+00  0.124E+00
   4.383  0.882E+00  0.872E+00
   4.393  0.173E+01  0.172E+01
   4.403  0.644E+00  0.638E+00
   4.413  0.378E-01  0.374E-01
   4.423  0.316E-03  0.312E-03
   4.433  0.362E-06  0.358E-06
   4.443  0.946E-06  0.935E-06
   4.453  0.638E-03  0.630E-03
   4.463  0.582E-01  0.575E-01
   4.473  0.721E+00  0.713E+00
   4.483  0.134E+01  0.133E+01
   4.493  0.165E+01  0.163E+01
   4.503  0.238E+01  0.235E+01
   4.513  0.120E+01  0.119E+01
   4.523  0.497E+00  0.492E+00
   4.533  0.650E-01  0.643E-01
   4.543  0.259E+00  0.254E+00
   4.553  0.111E+01  0.109E+01
   4.563  0.788E+00  0.776E+00
   4.573  0.917E-01  0.905E-01
   4.583  0.691E-01  0.683E-01
   4.593  0.765E+00  0.757E+00
   4.603  0.118E+01  0.116E+01
   4.613  0.244E+00  0.241E+00
   4.623  0.687E-02  0.679E-02
   4.633  0.980E-03  0.966E-03
   4.643  0.748E-01  0.737E-01
   4.653  0.797E+00  0.786E+00
   4.663  0.115E+01  0.114E+01
   4.673  0.232E+00  0.228E+00
   4.683  0.225E+00  0.222E+00
   4.693  0.141E+01  0.139E+01
   4.703  0.148E+01  0.146E+01
   4.713  0.411E+00  0.406E+00
   4.723  0.101E+01  0.996E+00
   4.733  0.101E+01  0.999E+00
   4.743  0.470E+00  0.465E+00
   4.753  0.661E+00  0.653E+00
   4.763  0.820E+00  0.808E+00
   4.773  0.163E+01  0.160E+01
   4.783  0.158E+01  0.156E+01
   4.793  0.573E+00  0.566E+00
   4.803  0.170E+00  0.168E+00
   4.813  0.638E+00  0.629E+00
   4.823  0.751E+00  0.736E+00
   4.833  0.613E+00  0.597E+00
   4.843  0.252E+00  0.247E+00
   4.853  0.998E+00  0.986E+00
   4.863  0.103E+01  0.102E+01
   4.873  0.536E+00  0.529E+00
   4.883  0.739E+00  0.730E+00
   4.893  0.148E+01  0.146E+01
   4.903  0.231E+01  0.228E+01
   4.913  0.211E+01  0.208E+01
   4.923  0.779E+00  0.768E+00
   4.933  0.219E+00  0.216E+00
   4.943  0.136E+01  0.134E+01
   4.953  0.268E+01  0.265E+01
   4.963  0.367E+01  0.363E+01
   4.973  0.220E+01  0.217E+01
   4.983  0.154E+01  0.153E+01
   4.993  0.161E+01  0.159E+01
   5.003  0.322E+00  0.318E+00
   5.013  0.274E+00  0.270E+00
   5.023  0.120E+01  0.118E+01
   5.033  0.738E+00  0.728E+00
   5.043  0.330E+00  0.325E+00
   5.053  0.121E+01  0.119E+01
   5.063  0.108E+01  0.106E+01
   5.073  0.131E+01  0.129E+01
   5.083  0.630E+00  0.621E+00
   5.093  0.407E+00  0.398E+00
   5.103  0.625E+00  0.612E+00
   5.113  0.491E+00  0.479E+00
   5.123  0.798E+00  0.779E+00
   5.133  0.124E+01  0.122E+01
   5.143  0.871E+00  0.858E+00
   5.153  0.920E-01  0.906E-01
   5.163  0.132E-02  0.130E-02
   5.173  0.277E-05  0.273E-05
   5.183  0.215E-03  0.211E-03
   5.193  0.316E-01  0.311E-01
   5.203  0.649E+00  0.639E+00
   5.213  0.188E+01  0.185E+01
   5.223  0.780E+00  0.768E+00
   5.233  0.464E-01  0.457E-01
   5.243  0.397E-03  0.391E-03
   5.253  0.485E-06  0.478E-06
   5.263  0.575E-06  0.564E-06
   5.273  0.442E-03  0.434E-03
   5.283  0.460E-01  0.452E-01
   5.293  0.648E+00  0.637E+00
   5.303  0.127E+01  0.125E+01
   5.313  0.708E+00  0.691E+00
   5.323  0.596E+00  0.578E+00
   5.333  0.218E+00  0.212E+00
   5.343  0.897E+00  0.877E+00
   5.353  0.108E+01  0.106E+01
   5.363  0.178E+00  0.174E+00
   5.373  0.431E-02  0.421E-02
   5.383  0.401E-01  0.393E-01
   5.393  0.609E+00  0.597E+00
   5.403  0.125E+01  0.123E+01
   5.413  0.391E+00  0.383E+00
   5.423  0.436E+00  0.429E+00
   5.433  0.560E+00  0.551E+00
   5.443  0.101E+00  0.989E-01
   5.453  0.244E-02  0.240E-02
   5.463  0.143E-04  0.140E-04
   5.473  0.207E-02  0.201E-02
   5.483  0.932E-01  0.904E-01
   5.493  0.659E+00  0.640E+00
   5.503  0.151E+01  0.148E+01
   5.513  0.178E+01  0.174E+01
   5.523  0.455E+00  0.445E+00
   5.533  0.179E-01  0.175E-01
   5.543  0.100E-03  0.981E-04
   5.553  0.774E-07  0.758E-07
   5.563  0.815E-11  0.798E-11
   5.573  0.541E-10  0.531E-10
   5.583  0.303E-06  0.298E-06
   5.593  0.231E-03  0.227E-03
   5.603  0.245E-01  0.240E-01
   5.613  0.412E+00  0.404E+00
   5.623  0.179E+01  0.175E+01
   5.633  0.293E+01  0.285E+01
   5.643  0.146E+01  0.142E+01
   5.653  0.162E+00  0.158E+00
   5.663  0.298E-02  0.290E-02
   5.673  0.780E-05  0.759E-05
   5.683  0.280E-08  0.272E-08
   5.693  0.901E-12  0.872E-12
   5.703  0.100E-07  0.967E-08
   5.713  0.178E-04  0.172E-04
   5.723  0.435E-02  0.420E-02
   5.733  0.156E+00  0.151E+00
   5.743  0.102E+01  0.988E+00
   5.753  0.163E+01  0.158E+01
   5.763  0.559E+00  0.544E+00
   5.773  0.207E+00  0.203E+00
   5.783  0.627E+00  0.613E+00
   5.793  0.299E+00  0.292E+00
   5.803  0.193E-01  0.189E-01
   5.813  0.170E-03  0.166E-03
   5.823  0.759E-03  0.736E-03
   5.833  0.501E-01  0.485E-01
   5.843  0.448E+00  0.434E+00
   5.853  0.550E+00  0.533E+00
   5.863  0.375E+00  0.363E+00
   5.873  0.122E+01  0.118E+01
   5.883  0.766E+00  0.743E+00
   5.893  0.835E+00  0.809E+00
   5.903  0.129E+01  0.125E+01
   5.913  0.827E+00  0.804E+00
   5.923  0.386E+00  0.376E+00
   5.933  0.330E-01  0.321E-01
   5.943  0.773E-03  0.749E-03
   5.953  0.328E-01  0.316E-01
   5.963  0.380E+00  0.367E+00
   5.973  0.719E+00  0.694E+00
   5.983  0.110E+01  0.107E+01
   5.993  0.102E+01  0.983E+00
   6.003  0.367E+00  0.355E+00
   6.013  0.116E+01  0.112E+01
   6.023  0.797E+00  0.771E+00
   6.033  0.894E-01  0.864E-01
   6.043  0.262E+00  0.252E+00
   6.053  0.636E+00  0.612E+00
   6.063  0.254E+00  0.244E+00
   6.073  0.878E+00  0.846E+00
   6.083  0.282E+01  0.272E+01
   6.093  0.236E+01  0.227E+01
   6.103  0.655E+00  0.631E+00
   6.113  0.452E-01  0.435E-01
   6.123  0.211E+00  0.203E+00
   6.133  0.897E+00  0.864E+00
   6.143  0.151E+01  0.145E+01
   6.153  0.154E+01  0.148E+01
   6.163  0.356E+01  0.343E+01
   6.173  0.314E+01  0.302E+01
   6.183  0.427E+00  0.410E+00
   6.193  0.803E-02  0.772E-02
   6.203  0.206E-04  0.198E-04
   6.213  0.713E-08  0.685E-08
   6.223  0.334E-12  0.322E-12
   6.233  0.212E-17  0.204E-17
   6.243  0.000E+00  0.000E+00
   6.253  0.000E+00  0.000E+00
   6.263  0.000E+00  0.000E+00
   6.273  0.000E+00  0.000E+00
   6.283  0.000E+00  0.000E+00
   6.293  0.000E+00  0.000E+00
   6.303  0.000E+00  0.000E+00
   6.313  0.000E+00  0.000E+00
   6.323  0.000E+00  0.000E+00
   6.333  0.000E+00  0.000E+00
   6.343  0.000E+00  0.000E+00
   6.353  0.000E+00  0.000E+00
   6.363  0.000E+00  0.000E+00
   6.373  0.000E+00  0.000E+00
   6.383  0.000E+00  0.000E+00
   6.393  0.000E+00  0.000E+00
   6.403  0.000E+00  0.000E+00
   6.413  0.000E+00  0.000E+00
   6.423  0.000E+00  0.000E+00
   6.433  0.000E+00  0.000E+00
   6.443  0.000E+00  0.000E+00
   6.453  0.000E+00  0.000E+00
   6.463  0.000E+00  0.000E+00
   6.473  0.000E+00  0.000E+00
   6.483  0.000E+00  0.000E+00
   6.493  0.000E+00  0.000E+00
   6.503  0.000E+00  0.000E+00
   6.513  0.000E+00  0.000E+00
   6.523  0.000E+00  0.000E+00
   6.533  0.000E+00  0.000E+00
   6.543  0.000E+00  0.000E+00
   6.553  0.000E+00  0.000E+00
   6.563  0.000E+00  0.000E+00
   6.573  0.179E-15  0.159E-15
   6.583  0.115E-10  0.102E-10
   6.593  0.100E-06  0.889E-07
   6.603  0.119E-03  0.106E-03
   6.613  0.192E-01  0.171E-01
   6.623  0.423E+00  0.377E+00
   6.633  0.127E+01  0.113E+01
   6.643  0.519E+00  0.463E+00
   6.653  0.368E-01  0.328E-01
   6.663  0.264E+00  0.234E+00
   6.673  0.119E+01  0.106E+01
   6.683  0.733E+00  0.651E+00
   6.693  0.612E-01  0.544E-01
   6.703  0.693E-03  0.618E-03
   6.713  0.107E-05  0.955E-06
   6.723  0.802E-05  0.737E-05
   6.733  0.283E-02  0.257E-02
   6.743  0.166E+00  0.147E+00
   6.753  0.183E+01  0.157E+01
   6.763  0.401E+01  0.337E+01
   6.773  0.249E+01  0.207E+01
   6.783  0.268E+01  0.222E+01
   6.793  0.196E+01  0.163E+01
   6.803  0.687E+00  0.571E+00
   6.813  0.663E+00  0.551E+00
   6.823  0.383E+00  0.319E+00
   6.833  0.665E+00  0.552E+00
   6.843  0.787E+00  0.653E+00
   6.853  0.193E+01  0.160E+01
   6.863  0.199E+01  0.167E+01
   6.873  0.967E+00  0.868E+00
   6.883  0.797E+00  0.688E+00
   6.893  0.118E+01  0.963E+00
   6.903  0.519E+00  0.418E+00
   6.913  0.248E+00  0.204E+00
   6.923  0.636E+00  0.528E+00
   6.933  0.264E+00  0.220E+00
   6.943  0.132E+00  0.109E+00
   6.953  0.893E+00  0.738E+00
   6.963  0.137E+01  0.113E+01
   6.973  0.144E+01  0.119E+01
   6.983  0.666E+00  0.548E+00
   6.993  0.312E+00  0.259E+00
   7.003  0.641E+00  0.533E+00
   7.013  0.362E+00  0.318E+00
   7.023  0.627E+00  0.589E+00
   7.033  0.409E+00  0.376E+00
   7.043  0.551E+00  0.460E+00
   7.053  0.465E+00  0.386E+00
   7.063  0.123E+00  0.969E-01
   7.073  0.502E+00  0.381E+00
   7.083  0.671E+00  0.520E+00
   7.093  0.112E+01  0.922E+00
   7.103  0.911E+00  0.749E+00
   7.113  0.184E+00  0.151E+00
   7.123  0.790E+00  0.645E+00
   7.133  0.122E+01  0.100E+01
   7.143  0.712E+00  0.588E+00
   7.153  0.519E+00  0.431E+00
   7.163  0.742E-01  0.616E-01
   7.173  0.150E-02  0.125E-02
   7.183  0.106E-01  0.915E-02
   7.193  0.303E+00  0.265E+00
   7.203  0.121E+01  0.108E+01
   7.213  0.679E+00  0.609E+00
   7.223  0.531E-01  0.482E-01
   7.233  0.821E-03  0.731E-03
   7.243  0.396E-01  0.328E-01
   7.253  0.892E+00  0.738E+00
   7.263  0.293E+01  0.242E+01
   7.273  0.189E+01  0.156E+01
   7.283  0.139E+01  0.115E+01
   7.293  0.750E+00  0.616E+00
   7.303  0.565E+00  0.418E+00
   7.313  0.148E+01  0.114E+01
   7.323  0.187E+01  0.151E+01
   7.333  0.185E+01  0.153E+01
   7.343  0.239E+01  0.198E+01
   7.353  0.176E+01  0.146E+01
   7.363  0.255E+00  0.211E+00
   7.373  0.584E-02  0.483E-02
   7.383  0.354E-03  0.307E-03
   7.393  0.441E-01  0.384E-01
   7.403  0.788E+00  0.685E+00
   7.413  0.191E+01  0.166E+01
   7.423  0.624E+00  0.542E+00
   7.433  0.478E-01  0.406E-01
   7.443  0.462E+00  0.380E+00
   7.453  0.169E+01  0.139E+01
   7.463  0.162E+01  0.133E+01
   7.473  0.655E+00  0.528E+00
   7.483  0.724E-01  0.581E-01
   7.493  0.214E+00  0.177E+00
   7.503  0.120E+01  0.990E+00
   7.513  0.157E+01  0.129E+01
   7.523  0.143E+01  0.117E+01
   7.533  0.131E+01  0.105E+01
   7.543  0.941E+00  0.752E+00
   7.553  0.112E+00  0.898E-01
   7.563  0.234E-02  0.185E-02
   7.573  0.583E-01  0.444E-01
   7.583  0.900E+00  0.687E+00
   7.593  0.191E+01  0.146E+01
   7.603  0.108E+01  0.862E+00
   7.613  0.130E+01  0.107E+01
   7.623  0.734E+00  0.639E+00
   7.633  0.190E+01  0.176E+01
   7.643  0.187E+01  0.174E+01
   7.653  0.467E+00  0.432E+00
   7.663  0.534E+00  0.490E+00
   7.673  0.773E+00  0.682E+00
   7.683  0.170E+01  0.143E+01
   7.693  0.210E+01  0.184E+01
   7.703  0.135E+01  0.123E+01
   7.713  0.127E+01  0.116E+01
   7.723  0.122E+01  0.102E+01
   7.733  0.102E+01  0.842E+00
   7.743  0.223E+00  0.183E+00
   7.753  0.990E+00  0.823E+00
   7.763  0.206E+01  0.174E+01
   7.773  0.237E+01  0.194E+01
   7.783  0.206E+01  0.164E+01
   7.793  0.349E+00  0.277E+00
   7.803  0.909E-02  0.719E-02
   7.813  0.465E-02  0.432E-02
   7.823  0.150E+00  0.140E+00
   7.833  0.877E+00  0.808E+00
   7.843  0.208E+01  0.185E+01
   7.853  0.207E+01  0.178E+01
   7.863  0.575E+00  0.496E+00
   7.873  0.602E+00  0.576E+00
   7.883  0.388E+00  0.372E+00
   7.893  0.118E+00  0.109E+00
   7.903  0.575E+00  0.522E+00
   7.913  0.124E+01  0.105E+01
   7.923  0.232E+01  0.182E+01
   7.933  0.129E+01  0.101E+01
   7.943  0.598E+00  0.478E+00
   7.953  0.128E+01  0.102E+01
   7.963  0.568E+00  0.455E+00
   7.973  0.808E+00  0.665E+00
   7.983  0.117E+01  0.960E+00
   7.993  0.235E+00  0.194E+00
   8.003  0.391E-01  0.360E-01
   8.013  0.378E+00  0.355E+00
   8.023  0.618E+00  0.578E+00
   8.033  0.833E+00  0.715E+00
   8.043  0.251E+01  0.211E+01
   8.053  0.120E+01  0.101E+01
   8.063  0.782E-01  0.652E-01
   8.073  0.691E-02  0.553E-02
   8.083  0.237E+00  0.189E+00
   8.093  0.140E+01  0.113E+01
   8.103  0.217E+01  0.180E+01
   8.113  0.152E+01  0.135E+01
   8.123  0.649E+00  0.609E+00
   8.133  0.633E+00  0.597E+00
   8.143  0.281E+00  0.260E+00
   8.153  0.750E+00  0.660E+00
   8.163  0.157E+01  0.128E+01
   8.173  0.164E+01  0.128E+01
   8.183  0.858E+00  0.681E+00
   8.193  0.598E+00  0.493E+00
   8.203  0.233E+00  0.196E+00
   8.213  0.145E+01  0.125E+01
   8.223  0.238E+01  0.206E+01
   8.233  0.573E+00  0.501E+00
   8.243  0.347E+00  0.328E+00
   8.253  0.616E+00  0.583E+00
   8.263  0.156E+00  0.148E+00
   8.273  0.619E-02  0.578E-02
   8.283  0.732E-01  0.613E-01
   8.293  0.914E+00  0.746E+00
   8.303  0.227E+01  0.177E+01
   8.313  0.212E+01  0.169E+01
   8.323  0.174E+01  0.139E+01
   8.333  0.149E+01  0.126E+01
   8.343  0.407E+00  0.374E+00
   8.353  0.260E-01  0.248E-01
   8.363  0.107E+00  0.102E+00
   8.373  0.570E+00  0.542E+00
   8.383  0.510E+00  0.469E+00
   8.393  0.113E+01  0.908E+00
   8.403  0.176E+01  0.144E+01
   8.413  0.428E+00  0.357E+00
   8.423  0.554E-01  0.426E-01
   8.433  0.424E+00  0.313E+00
   8.443  0.853E+00  0.654E+00
   8.453  0.112E+01  0.902E+00
   8.463  0.147E+01  0.115E+01
   8.473  0.581E+00  0.453E+00
   8.483  0.604E-01  0.515E-01
   8.493  0.339E+00  0.323E+00
   8.503  0.653E+00  0.624E+00
   8.513  0.565E+00  0.544E+00
   8.523  0.571E+00  0.551E+00
   8.533  0.105E+00  0.101E+00
   8.543  0.261E-02  0.252E-02
   8.553  0.883E-05  0.852E-05
   8.563  0.404E-08  0.390E-08
   8.573  0.676E-08  0.647E-08
   8.583  0.132E-04  0.126E-04
   8.593  0.358E-02  0.341E-02
   8.603  0.147E+00  0.137E+00
   8.613  0.117E+01  0.103E+01
   8.623  0.229E+01  0.186E+01
   8.633  0.131E+01  0.105E+01
   8.643  0.187E+01  0.155E+01
   8.653  0.104E+01  0.846E+00
   8.663  0.853E-01  0.697E-01
   8.673  0.312E+00  0.302E+00
   8.683  0.274E+01  0.264E+01
   8.693  0.364E+01  0.349E+01
   8.703  0.236E+01  0.217E+01
   8.713  0.265E+01  0.238E+01
   8.723  0.309E+01  0.281E+01
   8.733  0.180E+01  0.145E+01
   8.743  0.806E+00  0.649E+00
   8.753  0.643E+00  0.611E+00
   8.763  0.674E+00  0.650E+00
   8.773  0.137E+01  0.132E+01
   8.783  0.184E+01  0.178E+01
   8.793  0.643E+00  0.619E+00
   8.803  0.452E+00  0.428E+00
   8.813  0.177E+01  0.165E+01
   8.823  0.135E+01  0.125E+01
   8.833  0.741E+00  0.702E+00
   8.843  0.226E+00  0.215E+00
   8.853  0.256E+00  0.215E+00
   8.863  0.158E+01  0.131E+01
   8.873  0.139E+01  0.113E+01
   8.883  0.186E+00  0.149E+00
   8.893  0.443E+00  0.327E+00
   8.903  0.148E+01  0.113E+01
   8.913  0.159E+01  0.137E+01
   8.923  0.122E+01  0.104E+01
   8.933  0.138E+01  0.101E+01
   8.943  0.114E+01  0.934E+00
   8.953  0.132E+01  0.125E+01
   8.963  0.444E+00  0.426E+00
   8.973  0.153E+00  0.145E+00
   8.983  0.705E+00  0.651E+00
   8.993  0.139E+01  0.118E+01
   9.003  0.190E+01  0.160E+01
   9.013  0.116E+01  0.107E+01
   9.023  0.398E+00  0.381E+00
   9.033  0.729E+00  0.697E+00
   9.043  0.121E+01  0.115E+01
   9.053  0.280E+00  0.268E+00
   9.063  0.675E-01  0.611E-01
   9.073  0.487E+00  0.438E+00
   9.083  0.767E+00  0.704E+00
   9.093  0.717E+00  0.684E+00
   9.103  0.393E+00  0.376E+00
   9.113  0.108E+01  0.103E+01
   9.123  0.908E+00  0.866E+00
   9.133  0.113E+00  0.108E+00
   9.143  0.209E+00  0.199E+00
   9.153  0.830E+00  0.772E+00
   9.163  0.208E+01  0.175E+01
   9.173  0.365E+01  0.301E+01
   9.183  0.330E+01  0.275E+01
   9.193  0.163E+01  0.122E+01
   9.203  0.112E+01  0.692E+00
   9.213  0.136E+01  0.963E+00
   9.223  0.470E+00  0.341E+00
   9.233  0.337E-01  0.242E-01
   9.243  0.291E+00  0.201E+00
   9.253  0.142E+01  0.988E+00
   9.263  0.168E+01  0.120E+01
   9.273  0.119E+01  0.892E+00
   9.283  0.203E+01  0.169E+01
   9.293  0.274E+01  0.212E+01
   9.303  0.774E+00  0.556E+00
   9.313  0.155E+00  0.114E+00
   9.323  0.582E+00  0.438E+00
   9.333  0.422E+00  0.320E+00
   9.343  0.440E+00  0.355E+00
   9.353  0.103E+01  0.789E+00
   9.363  0.712E+00  0.504E+00
   9.373  0.627E+00  0.470E+00
   9.383  0.218E+01  0.171E+01
   9.393  0.250E+01  0.212E+01
   9.403  0.359E+01  0.307E+01
   9.413  0.304E+01  0.248E+01
   9.423  0.132E+01  0.103E+01
   9.433  0.340E+01  0.270E+01
   9.443  0.567E+01  0.443E+01
   9.453  0.385E+01  0.295E+01
   9.463  0.172E+01  0.131E+01
   9.473  0.318E+01  0.242E+01
   9.483  0.371E+01  0.304E+01
   9.493  0.136E+01  0.123E+01
   9.503  0.264E+00  0.226E+00
   9.513  0.104E+01  0.810E+00
   9.523  0.111E+01  0.870E+00
   9.533  0.105E+01  0.832E+00
   9.543  0.255E+01  0.198E+01
   9.553  0.329E+01  0.266E+01
   9.563  0.265E+01  0.222E+01
   9.573  0.172E+01  0.139E+01
   9.583  0.243E+01  0.183E+01
   9.593  0.209E+01  0.159E+01
   9.603  0.204E+01  0.166E+01
   9.613  0.239E+01  0.182E+01
   9.623  0.261E+01  0.208E+01
   9.633  0.235E+01  0.205E+01
   9.643  0.254E+01  0.219E+01
   9.653  0.266E+01  0.231E+01
   9.663  0.208E+01  0.172E+01
   9.673  0.139E+01  0.102E+01
   9.683  0.817E+00  0.463E+00
   9.693  0.328E+00  0.167E+00
   9.703  0.177E+00  0.111E+00
   9.713  0.111E+01  0.727E+00
   9.723  0.146E+01  0.102E+01
   9.733  0.597E+00  0.458E+00
   9.743  0.624E-01  0.496E-01
   9.753  0.114E-02  0.903E-03
   9.763  0.170E-01  0.121E-01
   9.773  0.389E+00  0.271E+00
   9.783  0.130E+01  0.887E+00
   9.793  0.124E+01  0.884E+00
   9.803  0.126E+01  0.956E+00
   9.813  0.319E+00  0.243E+00
   9.823  0.421E+00  0.329E+00
   9.833  0.200E+01  0.164E+01
   9.843  0.180E+01  0.157E+01
   9.853  0.342E+00  0.314E+00
   9.863  0.446E+00  0.437E+00
   9.873  0.585E+00  0.574E+00
   9.883  0.502E+00  0.487E+00
   9.893  0.104E+01  0.852E+00
   9.903  0.194E+01  0.123E+01
   9.913  0.145E+01  0.978E+00
   9.923  0.170E+01  0.135E+01
   9.933  0.125E+01  0.993E+00
   9.943  0.631E+00  0.568E+00
   9.953  0.539E+00  0.494E+00
   9.963  0.454E+00  0.282E+00
   9.973  0.103E+01  0.591E+00
   9.983  0.141E+01  0.831E+00
   9.993  0.518E+00  0.308E+00
  10.003  0.281E-01  0.167E-01
  10.013  0.295E-02  0.237E-02
  10.023  0.168E+00  0.138E+00
  10.033  0.140E+01  0.115E+01
  10.043  0.157E+01  0.130E+01
  10.053  0.246E+00  0.203E+00
  10.063  0.167E+00  0.126E+00
  10.073  0.619E+00  0.465E+00
  10.083  0.321E+00  0.241E+00
  10.093  0.225E-01  0.169E-01
  10.103  0.416E-03  0.310E-03
  10.113  0.268E-01  0.198E-01
  10.123  0.549E+00  0.406E+00
  10.133  0.187E+01  0.137E+01
  10.143  0.144E+01  0.979E+00
  10.153  0.662E+00  0.383E+00
  10.163  0.613E+00  0.321E+00
  10.173  0.445E+00  0.231E+00
  10.183  0.130E+00  0.693E-01
  10.193  0.850E+00  0.462E+00
  10.203  0.207E+01  0.113E+01
  10.213  0.546E+01  0.299E+01
  10.223  0.555E+01  0.310E+01
  10.233  0.332E+01  0.203E+01
  10.243  0.274E+01  0.182E+01
  10.253  0.247E+01  0.162E+01
  10.263  0.291E+01  0.183E+01
  10.273  0.331E+01  0.224E+01
  10.283  0.286E+01  0.197E+01
  10.293  0.130E+01  0.786E+00
  10.303  0.162E+01  0.103E+01
  10.313  0.297E+01  0.232E+01
  10.323  0.296E+01  0.216E+01
  10.333  0.152E+01  0.882E+00
  10.343  0.282E+01  0.141E+01
  10.353  0.330E+01  0.165E+01
  10.363  0.139E+01  0.720E+00
  10.373  0.238E+01  0.125E+01
  10.383  0.314E+01  0.161E+01
  10.393  0.327E+01  0.164E+01
  10.403  0.287E+01  0.143E+01
  10.413  0.102E+01  0.510E+00
  10.423  0.586E+00  0.310E+00
  10.433  0.453E+00  0.241E+00
  10.443  0.615E-01  0.348E-01
  10.453  0.217E+00  0.160E+00
  10.463  0.644E+00  0.476E+00
  10.473  0.439E+00  0.321E+00
  10.483  0.643E+00  0.463E+00
  10.493  0.301E+00  0.218E+00
  10.503  0.405E+00  0.316E+00
  10.513  0.179E+01  0.139E+01
  10.523  0.128E+01  0.947E+00
  10.533  0.143E+01  0.795E+00
  10.543  0.292E+01  0.173E+01
  10.553  0.207E+01  0.125E+01
  10.563  0.286E+00  0.170E+00
  10.573  0.261E+00  0.199E+00
  10.583  0.636E+00  0.487E+00
  10.593  0.215E+00  0.164E+00
  10.603  0.417E-01  0.383E-01
  10.613  0.374E+00  0.361E+00
  10.623  0.593E+00  0.573E+00
  10.633  0.161E+00  0.154E+00
  10.643  0.389E+00  0.357E+00
  10.653  0.586E+00  0.537E+00
  10.663  0.121E+00  0.111E+00
  10.673  0.107E-01  0.724E-02
  10.683  0.253E+00  0.144E+00
  10.693  0.118E+01  0.672E+00
  10.703  0.773E+00  0.437E+00
  10.713  0.532E+00  0.260E+00
  10.723  0.128E+01  0.609E+00
  10.733  0.471E+00  0.225E+00
  10.743  0.235E-01  0.112E-01
  10.753  0.159E-03  0.758E-04
  10.763  0.145E-06  0.694E-07
  10.773  0.201E-10  0.105E-10
  10.783  0.261E-07  0.236E-07
  10.793  0.434E-04  0.393E-04
  10.803  0.978E-02  0.886E-02
  10.813  0.302E+00  0.274E+00
  10.823  0.140E+01  0.127E+01
  10.833  0.170E+01  0.150E+01
  10.843  0.164E+01  0.127E+01
  10.853  0.647E+00  0.449E+00
  10.863  0.861E+00  0.401E+00
  10.873  0.142E+01  0.641E+00
  10.883  0.142E+01  0.620E+00
  10.893  0.718E+00  0.311E+00
  10.903  0.191E+00  0.113E+00
  10.913  0.101E+01  0.661E+00
  10.923  0.123E+01  0.825E+00
  10.933  0.794E+00  0.558E+00
  10.943  0.704E+00  0.363E+00
  10.953  0.152E+01  0.691E+00
  10.963  0.111E+01  0.638E+00
  10.973  0.260E+00  0.174E+00
  10.983  0.120E-01  0.828E-02
  10.993  0.801E-04  0.557E-04
  11.003  0.155E-05  0.117E-05
  11.013  0.730E-03  0.553E-03
  11.023  0.489E-01  0.371E-01
  11.033  0.446E+00  0.338E+00
  11.043  0.640E+00  0.499E+00
  11.053  0.644E+00  0.569E+00
  11.063  0.434E+00  0.392E+00
  11.073  0.457E-01  0.413E-01
  11.083  0.667E-03  0.602E-03
  11.093  0.532E-02  0.446E-02
  11.103  0.282E+00  0.236E+00
  11.113  0.202E+01  0.169E+01
  11.123  0.200E+01  0.167E+01
  11.133  0.897E+00  0.723E+00
  11.143  0.126E+01  0.994E+00
  11.153  0.683E+00  0.505E+00
  11.163  0.159E+01  0.103E+01
  11.173  0.166E+01  0.938E+00
  11.183  0.125E+01  0.833E+00
  11.193  0.218E+01  0.172E+01
  11.203  0.224E+01  0.136E+01
  11.213  0.835E+00  0.362E+00
  11.223  0.649E-01  0.255E-01
  11.233  0.740E-03  0.286E-03
  11.243  0.985E-04  0.731E-04
  11.253  0.210E-01  0.157E-01
  11.263  0.615E+00  0.460E+00
  11.273  0.245E+01  0.184E+01
  11.283  0.134E+01  0.101E+01
  11.293  0.350E+00  0.279E+00
  11.303  0.130E+01  0.103E+01
  11.313  0.171E+01  0.114E+01
  11.323  0.125E+01  0.740E+00
  11.333  0.784E+00  0.602E+00
  11.343  0.812E+00  0.696E+00
  11.353  0.131E+01  0.116E+01
  11.363  0.653E+00  0.530E+00
  11.373  0.791E+00  0.531E+00
  11.383  0.910E+00  0.760E+00
  11.393  0.371E+00  0.346E+00
  11.403  0.276E-01  0.263E-01
  11.413  0.306E-02  0.199E-02
  11.423  0.164E+00  0.106E+00
  11.433  0.139E+01  0.941E+00
  11.443  0.209E+01  0.146E+01
  11.453  0.179E+01  0.124E+01
  11.463  0.110E+01  0.759E+00
  11.473  0.238E+00  0.166E+00
  11.483  0.582E-01  0.487E-01
  11.493  0.654E+00  0.536E+00
  11.503  0.207E+01  0.148E+01
  11.513  0.303E+01  0.162E+01
  11.523  0.189E+01  0.824E+00
  11.533  0.219E+00  0.870E-01
  11.543  0.101E+00  0.771E-01
  11.553  0.886E+00  0.688E+00
  11.563  0.110E+01  0.851E+00
  11.573  0.432E+00  0.342E+00
  11.583  0.180E+01  0.140E+01
  11.593  0.299E+01  0.225E+01
  11.603  0.150E+01  0.112E+01
  11.613  0.855E+00  0.375E+00
  11.623  0.127E+01  0.374E+00
  11.633  0.417E+00  0.140E+00
  11.643  0.103E+01  0.599E+00
  11.653  0.251E+01  0.142E+01
  11.663  0.887E+00  0.486E+00
  11.673  0.448E-01  0.238E-01
  11.683  0.320E-03  0.166E-03
  11.693  0.965E-06  0.611E-06
  11.703  0.400E-03  0.278E-03
  11.713  0.337E-01  0.235E-01
  11.723  0.405E+00  0.276E+00
  11.733  0.110E+01  0.632E+00
  11.743  0.219E+01  0.118E+01
  11.753  0.238E+01  0.157E+01
  11.763  0.652E+00  0.459E+00
  11.773  0.245E+00  0.157E+00
  11.783  0.638E+00  0.402E+00
  11.793  0.323E+00  0.192E+00
  11.803  0.519E+00  0.242E+00
  11.813  0.487E+00  0.224E+00
  11.823  0.634E-01  0.292E-01
  11.833  0.152E-02  0.765E-03
  11.843  0.494E-01  0.312E-01
  11.853  0.892E+00  0.573E+00
  11.863  0.246E+01  0.162E+01
  11.873  0.121E+01  0.807E+00
  11.883  0.103E+01  0.733E+00
  11.893  0.207E+01  0.165E+01
  11.903  0.124E+01  0.103E+01
  11.913  0.593E+00  0.453E+00
  11.923  0.139E+01  0.104E+01
  11.933  0.162E+01  0.127E+01
  11.943  0.183E+01  0.149E+01
  11.953  0.117E+01  0.844E+00
  11.963  0.125E+01  0.848E+00
  11.973  0.762E+00  0.618E+00
  11.983  0.460E+00  0.400E+00
  11.993  0.520E-01  0.454E-01
  12.003  0.827E-03  0.718E-03
  12.013  0.489E-02  0.325E-02
  12.023  0.148E+00  0.987E-01
  12.033  0.611E+00  0.406E+00
  12.043  0.381E+00  0.230E+00
  12.053  0.465E+00  0.767E-01
  12.063  0.104E+01  0.356E+00
  12.073  0.207E+01  0.111E+01
  12.083  0.186E+01  0.100E+01
  12.093  0.108E+01  0.739E+00
  12.103  0.115E+01  0.842E+00
  12.113  0.219E+00  0.161E+00
  12.123  0.568E-02  0.416E-02
  12.133  0.199E-04  0.146E-04
  12.143  0.945E-08  0.692E-08
  12.153  0.219E-10  0.159E-10
  12.163  0.166E-06  0.121E-06
  12.173  0.177E-03  0.128E-03
  12.183  0.257E-01  0.184E-01
  12.193  0.528E+00  0.363E+00
  12.203  0.169E+01  0.101E+01
  12.213  0.108E+01  0.491E+00
  12.223  0.967E+00  0.720E+00
  12.233  0.220E+01  0.170E+01
  12.243  0.127E+01  0.926E+00
  12.253  0.144E+00  0.102E+00
  12.263  0.508E-01  0.366E-01
  12.273  0.662E+00  0.478E+00
  12.283  0.125E+01  0.901E+00
  12.293  0.802E+00  0.507E+00
  12.303  0.180E+01  0.108E+01
  12.313  0.176E+01  0.113E+01
  12.323  0.704E+00  0.478E+00
  12.333  0.952E+00  0.653E+00
  12.343  0.144E+01  0.926E+00
  12.353  0.693E+00  0.437E+00
  12.363  0.517E-01  0.326E-01
  12.373  0.529E-03  0.333E-03
  12.383  0.130E-03  0.110E-03
  12.393  0.208E-01  0.175E-01
  12.403  0.478E+00  0.398E+00
  12.413  0.188E+01  0.150E+01
  12.423  0.186E+01  0.135E+01
  12.433  0.978E+00  0.466E+00
  12.443  0.957E+00  0.577E+00
  12.453  0.158E+01  0.127E+01
  12.463  0.201E+01  0.143E+01
  12.473  0.214E+01  0.138E+01
  12.483  0.147E+01  0.113E+01
  12.493  0.112E+01  0.982E+00
  12.503  0.207E+00  0.183E+00
  12.513  0.327E+00  0.221E+00
  12.523  0.173E+01  0.107E+01
  12.533  0.274E+01  0.162E+01
  12.543  0.814E+00  0.478E+00
  12.553  0.353E-01  0.208E-01
  12.563  0.212E-03  0.126E-03
  12.573  0.177E-06  0.106E-06
  12.583  0.524E-05  0.372E-05
  12.593  0.221E-02  0.157E-02
  12.603  0.126E+00  0.894E-01
  12.613  0.973E+00  0.690E+00
  12.623  0.109E+01  0.765E+00
  12.633  0.684E+00  0.433E+00
  12.643  0.111E+01  0.741E+00
  12.653  0.192E+01  0.137E+01
  12.663  0.820E+00  0.591E+00
  12.673  0.543E-01  0.394E-01
  12.683  0.539E-03  0.393E-03
  12.693  0.782E-06  0.572E-06
  12.703  0.561E-06  0.340E-06
  12.713  0.434E-03  0.263E-03
  12.723  0.455E-01  0.275E-01
  12.733  0.645E+00  0.390E+00
  12.743  0.125E+01  0.756E+00
  12.753  0.682E+00  0.388E+00
  12.763  0.127E+01  0.683E+00
  12.773  0.708E+00  0.386E+00
  12.783  0.984E+00  0.571E+00
  12.793  0.104E+01  0.606E+00
  12.803  0.305E+00  0.142E+00
  12.813  0.109E+01  0.515E+00
  12.823  0.216E+01  0.128E+01
  12.833  0.256E+01  0.150E+01
  12.843  0.211E+01  0.136E+01
  12.853  0.851E+00  0.572E+00
  12.863  0.113E+00  0.757E-01
  12.873  0.268E-02  0.179E-02
  12.883  0.225E-02  0.159E-02
  12.893  0.127E+00  0.895E-01
  12.903  0.974E+00  0.687E+00
  12.913  0.101E+01  0.713E+00
  12.923  0.142E+00  0.100E+00
  12.933  0.270E-02  0.191E-02
  12.943  0.696E-05  0.491E-05
  12.953  0.615E-07  0.454E-07
  12.963  0.815E-04  0.600E-04
  12.973  0.156E-01  0.114E-01
  12.983  0.434E+00  0.308E+00
  12.993  0.201E+01  0.133E+01
  13.003  0.205E+01  0.129E+01
  13.013  0.215E+01  0.169E+01
  13.023  0.331E+01  0.258E+01
  13.033  0.217E+01  0.165E+01
  13.043  0.314E+00  0.235E+00
  13.053  0.489E+00  0.279E+00
  13.063  0.127E+01  0.723E+00
  13.073  0.455E+00  0.258E+00
  13.083  0.220E-01  0.125E-01
  13.093  0.145E-03  0.822E-04
  13.103  0.473E-03  0.375E-03
  13.113  0.374E-01  0.297E-01
  13.123  0.412E+00  0.324E+00
  13.133  0.920E+00  0.659E+00
  13.143  0.136E+01  0.822E+00
  13.153  0.617E+00  0.363E+00
  13.163  0.409E-01  0.240E-01
  13.173  0.370E-03  0.217E-03
  13.183  0.606E-03  0.380E-03
  13.193  0.722E-01  0.425E-01
  13.203  0.125E+01  0.673E+00
  13.213  0.313E+01  0.154E+01
  13.223  0.123E+01  0.557E+00
  13.233  0.903E+00  0.459E+00
  13.243  0.112E+01  0.578E+00
  13.253  0.224E+00  0.118E+00
  13.263  0.463E+00  0.292E+00
  13.273  0.127E+01  0.806E+00
  13.283  0.480E+00  0.304E+00
  13.293  0.245E-01  0.155E-01
  13.303  0.173E-03  0.110E-03
  13.313  0.191E-02  0.149E-02
  13.323  0.141E+00  0.110E+00
  13.333  0.153E+01  0.118E+01
  13.343  0.279E+01  0.205E+01
  13.353  0.180E+01  0.112E+01
  13.363  0.502E+00  0.288E+00
  13.373  0.326E+00  0.235E+00
  13.383  0.122E+01  0.899E+00
  13.393  0.673E+00  0.494E+00
  13.403  0.501E-01  0.368E-01
  13.413  0.504E-03  0.370E-03
  13.423  0.687E-06  0.504E-06
  13.433  0.361E-09  0.239E-09
  13.443  0.121E-05  0.752E-06
  13.453  0.853E-03  0.526E-03
  13.463  0.811E-01  0.498E-01
  13.473  0.104E+01  0.638E+00
  13.483  0.182E+01  0.111E+01
  13.493  0.429E+00  0.260E+00
  13.503  0.141E-01  0.860E-02
  13.513  0.446E-01  0.348E-01
  13.523  0.639E+00  0.499E+00
  13.533  0.128E+01  0.989E+00
  13.543  0.991E+00  0.628E+00
  13.553  0.181E+01  0.993E+00
  13.563  0.824E+00  0.434E+00
  13.573  0.199E+00  0.100E+00
  13.583  0.171E+01  0.101E+01
  13.593  0.441E+01  0.311E+01
  13.603  0.251E+01  0.197E+01
  13.613  0.296E+00  0.221E+00
  13.623  0.373E+00  0.681E-01
  13.633  0.596E+00  0.105E+00
  13.643  0.162E+00  0.409E-01
  13.653  0.544E+00  0.312E+00
  13.663  0.127E+01  0.731E+00
  13.673  0.420E+00  0.235E+00
  13.683  0.418E+00  0.763E-01
  13.693  0.136E+01  0.225E+00
  13.703  0.112E+01  0.195E+00
  13.713  0.122E+01  0.370E+00
  13.723  0.325E+01  0.121E+01
  13.733  0.322E+01  0.118E+01
  13.743  0.143E+01  0.392E+00
  13.753  0.390E+00  0.758E-01
  13.763  0.266E-01  0.496E-02
  13.773  0.179E-01  0.142E-01
  13.783  0.354E+00  0.269E+00
  13.793  0.138E+01  0.875E+00
  13.803  0.168E+01  0.675E+00
  13.813  0.155E+01  0.340E+00
  13.823  0.630E+00  0.123E+00
  13.833  0.641E-01  0.126E-01
  13.843  0.325E+00  0.664E-01
  13.853  0.737E+00  0.158E+00
  13.863  0.745E+00  0.190E+00
  13.873  0.397E+00  0.107E+00
  13.883  0.139E+00  0.507E-01
  13.893  0.571E+00  0.226E+00
  13.903  0.607E+00  0.239E+00
  13.913  0.115E+01  0.446E+00
  13.923  0.903E+00  0.345E+00
  13.933  0.688E+00  0.175E+00
  13.943  0.132E+01  0.327E+00
  13.953  0.135E+01  0.633E+00
  13.963  0.248E+01  0.136E+01
  13.973  0.122E+01  0.692E+00
  13.983  0.166E+01  0.110E+01
  13.993  0.144E+01  0.955E+00
  14.003  0.704E+00  0.255E+00
  14.013  0.450E+00  0.117E+00
  14.023  0.114E+00  0.463E-01
  14.033  0.491E+00  0.254E+00
  14.043  0.509E+00  0.263E+00
  14.053  0.307E+00  0.106E+00
  14.063  0.117E+01  0.346E+00
  14.073  0.787E+00  0.233E+00
  14.083  0.357E+00  0.127E+00
  14.093  0.122E+01  0.449E+00
  14.103  0.724E+00  0.266E+00
  14.113  0.790E+00  0.264E+00
  14.123  0.255E+01  0.844E+00
  14.133  0.152E+01  0.508E+00
  14.143  0.679E+00  0.232E+00
  14.153  0.278E+00  0.114E+00
  14.163  0.974E+00  0.548E+00
  14.173  0.177E+01  0.121E+01
  14.183  0.165E+01  0.110E+01
  14.193  0.164E+01  0.952E+00
  14.203  0.562E+00  0.322E+00
  14.213  0.400E-01  0.236E-01
  14.223  0.458E-03  0.275E-03
  14.233  0.749E-06  0.453E-06
  14.243  0.168E-09  0.102E-09
  14.253  0.515E-14  0.313E-14
  14.263  0.105E-16  0.307E-17
  14.273  0.969E-12  0.283E-12
  14.283  0.121E-07  0.354E-08
  14.293  0.205E-04  0.598E-05
  14.303  0.469E-02  0.137E-02
  14.313  0.145E+00  0.424E-01
  14.323  0.608E+00  0.178E+00
  14.333  0.345E+00  0.101E+00
  14.343  0.282E-01  0.871E-02
  14.353  0.108E+00  0.611E-01
  14.363  0.921E+00  0.524E+00
  14.373  0.117E+01  0.693E+00
  14.383  0.741E+00  0.557E+00
  14.393  0.406E+00  0.326E+00
  14.403  0.382E-01  0.308E-01
  14.413  0.491E-03  0.395E-03
  14.423  0.853E-06  0.687E-06
  14.433  0.200E-09  0.161E-09
  14.443  0.638E-14  0.514E-14
  14.453  0.000E+00  0.000E+00
  14.463  0.000E+00  0.000E+00
  14.473  0.252E-14  0.648E-15
  14.483  0.931E-10  0.240E-10
  14.493  0.466E-06  0.120E-06
  14.503  0.315E-03  0.812E-04
  14.513  0.289E-01  0.744E-02
  14.523  0.358E+00  0.922E-01
  14.533  0.601E+00  0.155E+00
  14.543  0.137E+00  0.352E-01
  14.553  0.421E-02  0.109E-02
  14.563  0.301E-02  0.241E-02
  14.573  0.113E+00  0.908E-01
  14.583  0.577E+00  0.464E+00
  14.593  0.399E+00  0.321E+00
  14.603  0.373E-01  0.300E-01
  14.613  0.473E-03  0.380E-03
  14.623  0.810E-06  0.651E-06
  14.633  0.188E-09  0.151E-09
  14.643  0.589E-14  0.474E-14
  14.653  0.000E+00  0.000E+00
  14.663  0.000E+00  0.000E+00
  14.673  0.000E+00  0.000E+00
  14.683  0.605E-14  0.137E-14
  14.693  0.192E-09  0.434E-10
  14.703  0.824E-06  0.186E-06
  14.713  0.479E-03  0.108E-03
  14.723  0.376E-01  0.850E-02
  14.733  0.401E+00  0.908E-01
  14.743  0.626E+00  0.167E+00
  14.753  0.840E+00  0.547E+00
  14.763  0.196E+01  0.132E+01
  14.773  0.163E+01  0.102E+01
  14.783  0.866E+00  0.636E+00
  14.793  0.392E+00  0.313E+00
  14.803  0.339E-01  0.272E-01
  14.813  0.405E-03  0.326E-03
  14.823  0.656E-06  0.527E-06
  14.833  0.144E-09  0.115E-09
  14.843  0.426E-14  0.342E-14
  14.853  0.000E+00  0.000E+00
  14.863  0.000E+00  0.000E+00
  14.873  0.000E+00  0.000E+00
  14.883  0.000E+00  0.000E+00
  14.893  0.000E+00  0.000E+00
  14.903  0.323E-16  0.261E-16
  14.913  0.249E-11  0.201E-11
  14.923  0.259E-07  0.209E-07
  14.933  0.365E-04  0.295E-04
  14.943  0.696E-02  0.563E-02
  14.953  0.180E+00  0.145E+00
  14.963  0.634E+00  0.513E+00
  14.973  0.474E+00  0.382E+00
  14.983  0.645E+00  0.520E+00
  14.993  0.300E+00  0.242E+00
  15.003  0.195E-01  0.157E-01
  15.013  0.171E-03  0.138E-03
  15.023  0.203E-06  0.164E-06
  15.033  0.326E-10  0.263E-10
  15.043  0.710E-15  0.572E-15
  15.053  0.000E+00  0.000E+00
  15.063  0.436E-13  0.358E-13
  15.073  0.971E-09  0.799E-09
  15.083  0.293E-05  0.241E-05
  15.093  0.120E-02  0.983E-03
  15.103  0.660E-01  0.543E-01
  15.113  0.494E+00  0.406E+00
  15.123  0.499E+00  0.411E+00
  15.133  0.699E-01  0.572E-01
  15.143  0.103E+00  0.633E-01
  15.153  0.899E+00  0.553E+00
  15.163  0.111E+01  0.690E+00
  15.173  0.553E+00  0.414E+00
  15.183  0.594E+00  0.480E+00
  15.193  0.125E+00  0.101E+00
  15.203  0.358E-02  0.290E-02
  15.213  0.139E-04  0.112E-04
  15.223  0.768E-08  0.622E-08
  15.233  0.147E-05  0.122E-05
  15.243  0.730E-03  0.606E-03
  15.253  0.489E-01  0.406E-01
  15.263  0.444E+00  0.368E+00
  15.273  0.544E+00  0.452E+00
  15.283  0.904E-01  0.750E-01
  15.293  0.203E-02  0.169E-02
  15.303  0.618E-05  0.513E-05
  15.313  0.137E-04  0.990E-05
  15.323  0.438E-02  0.316E-02
  15.333  0.189E+00  0.136E+00
  15.343  0.110E+01  0.795E+00
  15.353  0.890E+00  0.643E+00
  15.363  0.391E+00  0.311E+00
  15.373  0.628E+00  0.513E+00
  15.383  0.178E+00  0.146E+00
  15.393  0.995E-02  0.819E-02
  15.403  0.115E+00  0.964E-01
  15.413  0.579E+00  0.486E+00
  15.423  0.395E+00  0.332E+00
  15.433  0.365E-01  0.306E-01
  15.443  0.457E-03  0.383E-03
  15.453  0.772E-06  0.647E-06
  15.463  0.177E-09  0.148E-09
  15.473  0.138E-09  0.929E-10
  15.483  0.734E-06  0.495E-06
  15.493  0.530E-03  0.357E-03
  15.503  0.517E-01  0.348E-01
  15.513  0.683E+00  0.460E+00
  15.523  0.122E+01  0.823E+00
  15.533  0.299E+00  0.202E+00
  15.543  0.186E+00  0.154E+00
  15.553  0.107E+01  0.895E+00
  15.563  0.902E+00  0.756E+00
  15.573  0.106E+00  0.888E-01
  15.583  0.172E-02  0.144E-02
  15.593  0.386E-05  0.325E-05
  15.603  0.120E-08  0.101E-08
  15.613  0.510E-13  0.431E-13
  15.623  0.000E+00  0.000E+00
  15.633  0.181E-15  0.155E-15
  15.643  0.105E-10  0.899E-11
  15.653  0.820E-07  0.704E-07
  15.663  0.870E-04  0.747E-04
  15.673  0.125E-01  0.107E-01
  15.683  0.242E+00  0.208E+00
  15.693  0.637E+00  0.547E+00
  15.703  0.227E+00  0.195E+00
  15.713  0.406E-01  0.344E-01
  15.723  0.363E+00  0.305E+00
  15.733  0.599E+00  0.504E+00
  15.743  0.134E+00  0.113E+00
  15.753  0.405E-02  0.341E-02
  15.763  0.166E-04  0.140E-04
  15.773  0.974E-08  0.821E-08
  15.783  0.189E-05  0.164E-05
  15.793  0.873E-03  0.759E-03
  15.803  0.547E-01  0.476E-01
  15.813  0.486E+00  0.420E+00
  15.823  0.100E+01  0.824E+00
  15.833  0.136E+01  0.105E+01
  15.843  0.464E+00  0.356E+00
  15.853  0.227E-01  0.174E-01
  15.863  0.700E-03  0.588E-03
  15.873  0.412E-01  0.354E-01
  15.883  0.438E+00  0.374E+00
  15.893  0.104E+01  0.851E+00
  15.903  0.138E+01  0.108E+01
  15.913  0.482E+00  0.375E+00
  15.923  0.257E+00  0.224E+00
  15.933  0.638E+00  0.562E+00
  15.943  0.235E+00  0.207E+00
  15.953  0.117E-01  0.104E-01
  15.963  0.793E-04  0.700E-04
  15.973  0.726E-07  0.640E-07
  15.983  0.225E-08  0.199E-08
  15.993  0.566E-05  0.499E-05
  16.003  0.197E-02  0.174E-02
  16.013  0.980E-01  0.865E-01
  16.023  0.768E+00  0.680E+00
  16.033  0.109E+01  0.968E+00
  16.043  0.320E+00  0.285E+00
  16.053  0.546E+00  0.471E+00
  16.063  0.127E+01  0.109E+01
  16.073  0.409E+00  0.352E+00
  16.083  0.179E-01  0.154E-01
  16.093  0.387E-02  0.350E-02
  16.103  0.129E+00  0.116E+00
  16.113  0.599E+00  0.542E+00
  16.123  0.516E+00  0.467E+00
  16.133  0.639E+00  0.577E+00
  16.143  0.346E+00  0.312E+00
  16.153  0.281E-01  0.254E-01
  16.163  0.760E-01  0.696E-01
  16.173  0.577E+00  0.528E+00
  16.183  0.122E+01  0.112E+01
  16.193  0.140E+01  0.128E+01
  16.203  0.988E+00  0.907E+00
  16.213  0.110E+01  0.102E+01
  16.223  0.216E+01  0.199E+01
  16.233  0.225E+01  0.208E+01
  16.243  0.381E+00  0.353E+00
  16.253  0.889E-02  0.822E-02
  16.263  0.281E-04  0.260E-04
