# E (eV)   ldos(E)   pdos(E)_1   pdos(E)_2   pdos(E)_3   pdos(E)_4   
   7.605  0.248E-04  0.745E-05  0.495E-05  0.495E-05  0.745E-05
   7.607  0.155E-02  0.465E-03  0.311E-03  0.311E-03  0.465E-03
   7.609  0.137E-01  0.405E-02  0.280E-02  0.280E-02  0.405E-02
   7.611  0.216E-01  0.591E-02  0.490E-02  0.490E-02  0.591E-02
   7.613  0.136E-01  0.308E-02  0.372E-02  0.372E-02  0.308E-02
   7.615  0.442E-02  0.917E-03  0.129E-02  0.129E-02  0.917E-03
   7.617  0.408E-03  0.882E-04  0.116E-03  0.116E-03  0.882E-04
   7.619  0.117E-02  0.368E-03  0.218E-03  0.218E-03  0.368E-03
   7.621  0.406E-02  0.127E-02  0.753E-03  0.753E-03  0.127E-02
   7.623  0.190E-02  0.599E-03  0.354E-03  0.354E-03  0.599E-03
   7.625  0.121E-03  0.380E-04  0.225E-04  0.225E-04  0.380E-04
   7.627  0.104E-05  0.327E-06  0.193E-06  0.193E-06  0.327E-06
   7.629  0.121E-08  0.381E-09  0.225E-09  0.225E-09  0.381E-09
   7.631  0.191E-12  0.600E-13  0.354E-13  0.354E-13  0.600E-13
   7.633  0.412E-17  0.129E-17  0.769E-18  0.769E-18  0.129E-17
   7.635  0.497E-14  0.105E-14  0.144E-14  0.144E-14  0.105E-14
   7.637  0.710E-10  0.149E-10  0.206E-10  0.206E-10  0.149E-10
   7.639  0.138E-06  0.291E-07  0.401E-07  0.401E-07  0.291E-07
   7.641  0.372E-04  0.781E-05  0.108E-04  0.108E-04  0.781E-05
   7.643  0.142E-02  0.296E-03  0.412E-03  0.412E-03  0.296E-03
   7.645  0.815E-02  0.169E-02  0.238E-02  0.238E-02  0.169E-02
   7.647  0.774E-02  0.159E-02  0.228E-02  0.228E-02  0.159E-02
   7.649  0.132E-02  0.274E-03  0.388E-03  0.388E-03  0.274E-03
   7.651  0.115E-02  0.348E-03  0.225E-03  0.225E-03  0.348E-03
   7.653  0.337E-02  0.103E-02  0.650E-03  0.650E-03  0.103E-02
   7.655  0.142E-02  0.437E-03  0.274E-03  0.274E-03  0.437E-03
   7.657  0.207E-02  0.660E-03  0.377E-03  0.377E-03  0.660E-03
   7.659  0.135E-01  0.430E-02  0.245E-02  0.245E-02  0.430E-02
   7.661  0.123E-01  0.393E-02  0.224E-02  0.224E-02  0.393E-02
   7.663  0.159E-02  0.505E-03  0.289E-03  0.289E-03  0.505E-03
   7.665  0.248E-02  0.748E-03  0.490E-03  0.490E-03  0.748E-03
   7.667  0.134E-01  0.404E-02  0.265E-02  0.265E-02  0.404E-02
   7.669  0.987E-02  0.298E-02  0.195E-02  0.195E-02  0.298E-02
   7.671  0.986E-03  0.298E-03  0.195E-03  0.195E-03  0.298E-03
   7.673  0.311E-04  0.761E-05  0.792E-05  0.792E-05  0.761E-05
   7.675  0.897E-03  0.181E-03  0.267E-03  0.267E-03  0.181E-03
   7.677  0.632E-02  0.127E-02  0.189E-02  0.189E-02  0.127E-02
   7.679  0.624E-02  0.125E-02  0.187E-02  0.187E-02  0.125E-02
   7.681  0.120E-02  0.275E-03  0.327E-03  0.327E-03  0.275E-03
   7.683  0.239E-02  0.725E-03  0.472E-03  0.472E-03  0.725E-03
   7.685  0.773E-02  0.282E-02  0.105E-02  0.105E-02  0.282E-02
   7.687  0.333E-01  0.129E-01  0.377E-02  0.377E-02  0.129E-01
   7.689  0.258E-01  0.100E-01  0.290E-02  0.290E-02  0.100E-01
   7.691  0.272E-02  0.105E-02  0.306E-03  0.306E-03  0.105E-02
   7.693  0.389E-04  0.151E-04  0.437E-05  0.437E-05  0.151E-04
   7.695  0.751E-07  0.291E-07  0.844E-08  0.844E-08  0.291E-07
   7.697  0.196E-10  0.761E-11  0.221E-11  0.221E-11  0.761E-11
   7.699  0.176E-11  0.344E-12  0.538E-12  0.538E-12  0.344E-12
   7.701  0.756E-08  0.148E-08  0.230E-08  0.230E-08  0.148E-08
   7.703  0.440E-05  0.860E-06  0.134E-05  0.134E-05  0.860E-06
   7.705  0.349E-03  0.682E-04  0.106E-03  0.106E-03  0.682E-04
   7.707  0.377E-02  0.736E-03  0.115E-02  0.115E-02  0.736E-03
   7.709  0.555E-02  0.109E-02  0.169E-02  0.169E-02  0.109E-02
   7.711  0.178E-02  0.412E-03  0.479E-03  0.479E-03  0.412E-03
   7.713  0.217E-02  0.623E-03  0.460E-03  0.460E-03  0.623E-03
   7.715  0.909E-03  0.263E-03  0.192E-03  0.192E-03  0.263E-03
   7.717  0.524E-04  0.151E-04  0.110E-04  0.110E-04  0.151E-04
   7.719  0.408E-06  0.118E-06  0.861E-07  0.861E-07  0.118E-06
   7.721  0.496E-09  0.144E-09  0.104E-09  0.104E-09  0.144E-09
   7.723  0.168E-06  0.512E-07  0.328E-07  0.328E-07  0.512E-07
   7.725  0.602E-04  0.184E-04  0.117E-04  0.117E-04  0.184E-04
   7.727  0.302E-02  0.924E-03  0.588E-03  0.588E-03  0.924E-03
   7.729  0.213E-01  0.654E-02  0.414E-02  0.414E-02  0.654E-02
   7.731  0.212E-01  0.652E-02  0.411E-02  0.411E-02  0.652E-02
   7.733  0.324E-02  0.974E-03  0.647E-03  0.647E-03  0.974E-03
   7.735  0.138E-01  0.352E-02  0.337E-02  0.337E-02  0.352E-02
   7.737  0.180E+00  0.476E-01  0.422E-01  0.422E-01  0.476E-01
   7.739  0.532E+00  0.141E+00  0.125E+00  0.125E+00  0.141E+00
   7.741  0.797E+00  0.208E+00  0.190E+00  0.190E+00  0.208E+00
   7.743  0.106E+01  0.272E+00  0.257E+00  0.257E+00  0.272E+00
   7.745  0.898E+00  0.228E+00  0.221E+00  0.221E+00  0.228E+00
   7.747  0.414E+00  0.108E+00  0.989E-01  0.989E-01  0.108E+00
   7.749  0.234E+00  0.641E-01  0.529E-01  0.529E-01  0.641E-01
   7.751  0.228E+00  0.599E-01  0.543E-01  0.543E-01  0.599E-01
   7.753  0.114E+00  0.293E-01  0.274E-01  0.274E-01  0.293E-01
   7.755  0.109E+00  0.320E-01  0.225E-01  0.225E-01  0.320E-01
   7.757  0.126E+00  0.366E-01  0.263E-01  0.263E-01  0.366E-01
   7.759  0.206E+00  0.551E-01  0.477E-01  0.477E-01  0.551E-01
   7.761  0.192E+00  0.504E-01  0.457E-01  0.457E-01  0.504E-01
   7.763  0.315E-01  0.806E-02  0.772E-02  0.772E-02  0.806E-02
   7.765  0.450E-01  0.136E-01  0.893E-02  0.893E-02  0.136E-01
   7.767  0.128E+00  0.391E-01  0.250E-01  0.250E-01  0.391E-01
   7.769  0.646E-01  0.190E-01  0.133E-01  0.133E-01  0.190E-01
   7.771  0.115E+00  0.292E-01  0.281E-01  0.281E-01  0.292E-01
   7.773  0.198E+00  0.531E-01  0.458E-01  0.458E-01  0.531E-01
   7.775  0.992E-01  0.280E-01  0.215E-01  0.215E-01  0.280E-01
   7.777  0.113E-01  0.326E-02  0.236E-02  0.236E-02  0.326E-02
   7.779  0.329E-01  0.103E-01  0.614E-02  0.614E-02  0.103E-01
   7.781  0.124E+00  0.389E-01  0.231E-01  0.231E-01  0.389E-01
   7.783  0.654E-01  0.204E-01  0.123E-01  0.123E-01  0.204E-01
   7.785  0.444E-01  0.111E-01  0.111E-01  0.111E-01  0.111E-01
   7.787  0.123E+00  0.302E-01  0.312E-01  0.312E-01  0.302E-01
   7.789  0.574E-01  0.144E-01  0.143E-01  0.143E-01  0.144E-01
   7.791  0.680E-01  0.199E-01  0.140E-01  0.140E-01  0.199E-01
   7.793  0.117E+00  0.349E-01  0.238E-01  0.238E-01  0.349E-01
   7.795  0.605E-01  0.201E-01  0.101E-01  0.101E-01  0.201E-01
   7.797  0.100E+00  0.345E-01  0.157E-01  0.157E-01  0.345E-01
   7.799  0.134E+00  0.435E-01  0.234E-01  0.234E-01  0.435E-01
   7.801  0.381E-01  0.122E-01  0.682E-02  0.682E-02  0.122E-01
   7.803  0.316E-01  0.824E-02  0.754E-02  0.754E-02  0.824E-02
   7.805  0.124E+00  0.312E-01  0.309E-01  0.309E-01  0.312E-01
   7.807  0.768E-01  0.190E-01  0.194E-01  0.194E-01  0.190E-01
   7.809  0.698E-02  0.171E-02  0.178E-02  0.178E-02  0.171E-02
   7.811  0.340E-03  0.968E-04  0.732E-04  0.732E-04  0.968E-04
   7.813  0.126E-01  0.382E-02  0.247E-02  0.247E-02  0.382E-02
   7.815  0.932E-01  0.283E-01  0.183E-01  0.183E-01  0.283E-01
   7.817  0.121E+00  0.375E-01  0.230E-01  0.230E-01  0.375E-01
   7.819  0.135E+00  0.441E-01  0.232E-01  0.232E-01  0.441E-01
   7.821  0.694E-01  0.228E-01  0.119E-01  0.119E-01  0.228E-01
   7.823  0.777E-02  0.228E-02  0.160E-02  0.160E-02  0.228E-02
   7.825  0.347E-01  0.849E-02  0.884E-02  0.884E-02  0.849E-02
   7.827  0.116E+00  0.285E-01  0.295E-01  0.295E-01  0.285E-01
   7.829  0.534E-01  0.131E-01  0.136E-01  0.136E-01  0.131E-01
   7.831  0.333E-02  0.816E-03  0.847E-03  0.847E-03  0.816E-03
   7.833  0.807E-04  0.162E-04  0.242E-04  0.242E-04  0.162E-04
   7.835  0.464E-03  0.842E-04  0.148E-03  0.148E-03  0.842E-04
   7.837  0.598E-03  0.114E-03  0.185E-03  0.185E-03  0.114E-03
   7.839  0.174E-02  0.563E-03  0.304E-03  0.304E-03  0.563E-03
   7.841  0.499E-01  0.165E-01  0.847E-02  0.847E-02  0.165E-01
   7.843  0.222E+00  0.726E-01  0.386E-01  0.386E-01  0.726E-01
   7.845  0.146E+00  0.470E-01  0.259E-01  0.259E-01  0.470E-01
   7.847  0.144E-01  0.455E-02  0.265E-02  0.265E-02  0.455E-02
   7.849  0.119E-01  0.292E-02  0.303E-02  0.303E-02  0.292E-02
   7.851  0.885E-01  0.216E-01  0.226E-01  0.226E-01  0.216E-01
   7.853  0.908E-01  0.222E-01  0.232E-01  0.232E-01  0.222E-01
   7.855  0.126E-01  0.308E-02  0.322E-02  0.322E-02  0.308E-02
   7.857  0.237E-03  0.579E-04  0.606E-04  0.606E-04  0.579E-04
   7.859  0.661E-06  0.165E-06  0.166E-06  0.166E-06  0.165E-06
   7.861  0.207E-04  0.631E-05  0.402E-05  0.402E-05  0.631E-05
   7.863  0.989E-03  0.302E-03  0.193E-03  0.193E-03  0.302E-03
   7.865  0.652E-02  0.200E-02  0.126E-02  0.126E-02  0.200E-02
   7.867  0.141E-01  0.464E-02  0.239E-02  0.239E-02  0.464E-02
   7.869  0.851E-01  0.294E-01  0.131E-01  0.131E-01  0.294E-01
   7.871  0.115E+00  0.397E-01  0.176E-01  0.176E-01  0.397E-01
   7.873  0.379E-01  0.127E-01  0.629E-02  0.629E-02  0.127E-01
   7.875  0.999E-01  0.318E-01  0.181E-01  0.181E-01  0.318E-01
   7.877  0.920E-01  0.283E-01  0.177E-01  0.177E-01  0.283E-01
   7.879  0.101E+00  0.251E-01  0.252E-01  0.252E-01  0.251E-01
   7.881  0.893E-01  0.220E-01  0.227E-01  0.227E-01  0.220E-01
   7.883  0.220E-01  0.587E-02  0.514E-02  0.514E-02  0.587E-02
   7.885  0.325E-02  0.924E-03  0.701E-03  0.701E-03  0.924E-03
   7.887  0.109E-03  0.311E-04  0.232E-04  0.232E-04  0.311E-04
   7.889  0.516E-06  0.148E-06  0.110E-06  0.110E-06  0.148E-06
   7.891  0.360E-09  0.105E-09  0.749E-10  0.749E-10  0.105E-09
   7.893  0.127E-06  0.452E-07  0.186E-07  0.186E-07  0.452E-07
   7.895  0.797E-04  0.283E-04  0.116E-04  0.116E-04  0.283E-04
   7.897  0.675E-02  0.239E-02  0.983E-03  0.983E-03  0.239E-02
   7.899  0.773E-01  0.274E-01  0.113E-01  0.113E-01  0.274E-01
   7.901  0.120E+00  0.425E-01  0.175E-01  0.175E-01  0.425E-01
   7.903  0.265E-01  0.944E-02  0.381E-02  0.381E-02  0.944E-02
   7.905  0.187E-01  0.736E-02  0.200E-02  0.200E-02  0.736E-02
   7.907  0.377E-01  0.143E-01  0.457E-02  0.457E-02  0.143E-01
   7.909  0.941E-01  0.269E-01  0.201E-01  0.201E-01  0.269E-01
   7.911  0.221E+00  0.629E-01  0.474E-01  0.474E-01  0.629E-01
   7.913  0.800E-01  0.235E-01  0.165E-01  0.165E-01  0.235E-01
   7.915  0.410E-02  0.124E-02  0.814E-03  0.814E-03  0.124E-02
   7.917  0.296E-04  0.911E-05  0.567E-05  0.567E-05  0.911E-05
   7.919  0.297E-07  0.931E-08  0.554E-08  0.554E-08  0.931E-08
   7.921  0.413E-11  0.131E-11  0.755E-12  0.755E-12  0.131E-11
   7.923  0.674E-13  0.244E-13  0.931E-14  0.931E-14  0.244E-13
   7.925  0.103E-08  0.374E-09  0.143E-09  0.143E-09  0.374E-09
   7.927  0.215E-05  0.777E-06  0.296E-06  0.296E-06  0.777E-06
   7.929  0.603E-03  0.218E-03  0.833E-04  0.833E-04  0.218E-03
   7.931  0.229E-01  0.830E-02  0.317E-02  0.317E-02  0.830E-02
   7.933  0.118E+00  0.427E-01  0.163E-01  0.163E-01  0.427E-01
   7.935  0.824E-01  0.298E-01  0.114E-01  0.114E-01  0.298E-01
   7.937  0.101E-01  0.353E-02  0.153E-02  0.153E-02  0.353E-02
   7.939  0.607E-02  0.186E-02  0.117E-02  0.117E-02  0.186E-02
   7.941  0.739E-02  0.191E-02  0.178E-02  0.178E-02  0.191E-02
   7.943  0.628E-01  0.151E-01  0.163E-01  0.163E-01  0.151E-01
   7.945  0.994E-01  0.240E-01  0.257E-01  0.257E-01  0.240E-01
   7.947  0.446E-01  0.129E-01  0.940E-02  0.940E-02  0.129E-01
   7.949  0.106E+00  0.353E-01  0.178E-01  0.178E-01  0.353E-01
   7.951  0.639E-01  0.213E-01  0.107E-01  0.107E-01  0.213E-01
   7.953  0.524E-02  0.174E-02  0.875E-03  0.875E-03  0.174E-02
   7.955  0.581E-04  0.193E-04  0.970E-05  0.970E-05  0.193E-04
   7.957  0.213E-06  0.637E-07  0.425E-07  0.425E-07  0.637E-07
   7.959  0.478E-04  0.133E-04  0.106E-04  0.106E-04  0.133E-04
   7.961  0.344E-02  0.968E-03  0.754E-03  0.754E-03  0.968E-03
   7.963  0.553E-01  0.157E-01  0.120E-01  0.120E-01  0.157E-01
   7.965  0.201E+00  0.572E-01  0.435E-01  0.435E-01  0.572E-01
   7.967  0.246E+00  0.711E-01  0.518E-01  0.518E-01  0.711E-01
   7.969  0.291E+00  0.926E-01  0.531E-01  0.531E-01  0.926E-01
   7.971  0.183E+00  0.605E-01  0.309E-01  0.309E-01  0.605E-01
   7.973  0.677E-01  0.199E-01  0.139E-01  0.139E-01  0.199E-01
   7.975  0.140E+00  0.389E-01  0.311E-01  0.311E-01  0.389E-01
   7.977  0.747E-01  0.209E-01  0.164E-01  0.164E-01  0.209E-01
   7.979  0.162E+00  0.451E-01  0.358E-01  0.358E-01  0.451E-01
   7.981  0.200E+00  0.529E-01  0.469E-01  0.469E-01  0.529E-01
   7.983  0.447E-01  0.113E-01  0.111E-01  0.111E-01  0.113E-01
   7.985  0.287E-02  0.748E-03  0.688E-03  0.688E-03  0.748E-03
   7.987  0.419E-01  0.121E-01  0.882E-02  0.882E-02  0.121E-01
   7.989  0.214E+00  0.641E-01  0.431E-01  0.431E-01  0.641E-01
   7.991  0.166E+00  0.514E-01  0.315E-01  0.315E-01  0.514E-01
   7.993  0.452E-01  0.138E-01  0.874E-02  0.874E-02  0.138E-01
   7.995  0.126E+00  0.373E-01  0.256E-01  0.256E-01  0.373E-01
   7.997  0.821E-01  0.243E-01  0.167E-01  0.167E-01  0.243E-01
   7.999  0.727E-02  0.215E-02  0.148E-02  0.148E-02  0.215E-02
   8.001  0.871E-04  0.258E-04  0.177E-04  0.177E-04  0.258E-04
   8.003  0.136E-04  0.500E-05  0.177E-05  0.177E-05  0.500E-05
   8.005  0.234E-02  0.850E-03  0.322E-03  0.322E-03  0.850E-03
   8.007  0.603E-01  0.210E-01  0.912E-02  0.912E-02  0.210E-01
   8.009  0.241E+00  0.793E-01  0.414E-01  0.414E-01  0.793E-01
   8.011  0.156E+00  0.478E-01  0.303E-01  0.303E-01  0.478E-01
   8.013  0.269E-01  0.796E-02  0.551E-02  0.551E-02  0.796E-02
   8.015  0.981E-01  0.303E-01  0.188E-01  0.188E-01  0.303E-01
   8.017  0.165E+00  0.519E-01  0.308E-01  0.308E-01  0.519E-01
   8.019  0.120E+00  0.326E-01  0.276E-01  0.276E-01  0.326E-01
   8.021  0.748E-01  0.180E-01  0.194E-01  0.194E-01  0.180E-01
   8.023  0.893E-02  0.212E-02  0.234E-02  0.234E-02  0.212E-02
   8.025  0.148E-03  0.350E-04  0.387E-04  0.387E-04  0.350E-04
   8.027  0.103E-03  0.354E-04  0.159E-04  0.159E-04  0.354E-04
   8.029  0.745E-02  0.257E-02  0.115E-02  0.115E-02  0.257E-02
   8.031  0.735E-01  0.254E-01  0.114E-01  0.114E-01  0.254E-01
   8.033  0.107E+00  0.361E-01  0.172E-01  0.172E-01  0.361E-01
   8.035  0.105E+00  0.293E-01  0.232E-01  0.232E-01  0.293E-01
   8.037  0.118E+00  0.313E-01  0.275E-01  0.275E-01  0.313E-01
   8.039  0.464E-01  0.133E-01  0.991E-02  0.991E-02  0.133E-01
   8.041  0.123E+00  0.372E-01  0.241E-01  0.241E-01  0.372E-01
   8.043  0.793E-01  0.241E-01  0.156E-01  0.156E-01  0.241E-01
   8.045  0.982E-02  0.288E-02  0.202E-02  0.202E-02  0.288E-02
   8.047  0.114E-01  0.324E-02  0.248E-02  0.248E-02  0.324E-02
   8.049  0.411E-01  0.152E-01  0.535E-02  0.535E-02  0.152E-01
   8.051  0.132E+00  0.506E-01  0.155E-01  0.155E-01  0.506E-01
   8.053  0.648E-01  0.248E-01  0.759E-02  0.759E-02  0.248E-01
   8.055  0.431E-02  0.165E-02  0.506E-03  0.506E-03  0.165E-02
   8.057  0.973E-03  0.235E-03  0.252E-03  0.252E-03  0.235E-03
   8.059  0.253E-01  0.596E-02  0.669E-02  0.669E-02  0.596E-02
   8.061  0.927E-01  0.218E-01  0.245E-01  0.245E-01  0.218E-01
   8.063  0.463E-01  0.109E-01  0.122E-01  0.122E-01  0.109E-01
   8.065  0.170E-01  0.436E-02  0.413E-02  0.413E-02  0.436E-02
   8.067  0.106E+00  0.279E-01  0.250E-01  0.250E-01  0.279E-01
   8.069  0.169E+00  0.475E-01  0.372E-01  0.372E-01  0.475E-01
   8.071  0.138E+00  0.419E-01  0.271E-01  0.271E-01  0.419E-01
   8.073  0.572E-01  0.188E-01  0.985E-02  0.985E-02  0.188E-01
   8.075  0.108E+00  0.378E-01  0.162E-01  0.162E-01  0.378E-01
   8.077  0.564E-01  0.198E-01  0.844E-02  0.844E-02  0.198E-01
   8.079  0.402E-02  0.141E-02  0.602E-03  0.602E-03  0.141E-02
   8.081  0.388E-04  0.136E-04  0.580E-05  0.580E-05  0.136E-04
   8.083  0.507E-07  0.178E-07  0.758E-08  0.758E-08  0.178E-07
   8.085  0.114E-07  0.367E-08  0.204E-08  0.204E-08  0.367E-08
   8.087  0.523E-05  0.168E-05  0.935E-06  0.935E-06  0.168E-05
   8.089  0.325E-03  0.105E-03  0.581E-04  0.581E-04  0.105E-03
   8.091  0.281E-02  0.908E-03  0.497E-03  0.497E-03  0.908E-03
   8.093  0.982E-02  0.361E-02  0.130E-02  0.130E-02  0.361E-02
   8.095  0.799E-01  0.311E-01  0.889E-02  0.889E-02  0.311E-01
   8.097  0.127E+00  0.495E-01  0.141E-01  0.141E-01  0.495E-01
   8.099  0.325E-01  0.123E-01  0.400E-02  0.400E-02  0.123E-01
   8.101  0.755E-01  0.231E-01  0.147E-01  0.147E-01  0.231E-01
   8.103  0.231E+00  0.652E-01  0.504E-01  0.504E-01  0.652E-01
   8.105  0.235E+00  0.600E-01  0.576E-01  0.576E-01  0.600E-01
   8.107  0.554E-01  0.136E-01  0.141E-01  0.141E-01  0.136E-01
   8.109  0.205E-02  0.495E-03  0.528E-03  0.528E-03  0.495E-03
   8.111  0.109E-04  0.261E-05  0.282E-05  0.282E-05  0.261E-05
   8.113  0.470E-04  0.167E-04  0.683E-05  0.683E-05  0.167E-04
   8.115  0.455E-02  0.161E-02  0.660E-03  0.660E-03  0.161E-02
   8.117  0.595E-01  0.211E-01  0.865E-02  0.865E-02  0.211E-01
   8.119  0.105E+00  0.374E-01  0.153E-01  0.153E-01  0.374E-01
   8.121  0.253E-01  0.898E-02  0.367E-02  0.367E-02  0.898E-02
   8.123  0.101E-02  0.366E-03  0.138E-03  0.138E-03  0.366E-03
   8.125  0.620E-02  0.249E-02  0.612E-03  0.612E-03  0.249E-02
   8.127  0.278E-01  0.111E-01  0.274E-02  0.274E-02  0.111E-01
   8.129  0.175E-01  0.692E-02  0.181E-02  0.181E-02  0.692E-02
   8.131  0.761E-02  0.224E-02  0.157E-02  0.157E-02  0.224E-02
   8.133  0.114E-01  0.319E-02  0.248E-02  0.248E-02  0.319E-02
   8.135  0.528E-01  0.166E-01  0.982E-02  0.982E-02  0.166E-01
   8.137  0.125E+00  0.393E-01  0.230E-01  0.230E-01  0.393E-01
   8.139  0.534E-01  0.163E-01  0.104E-01  0.104E-01  0.163E-01
   8.141  0.151E+00  0.421E-01  0.333E-01  0.333E-01  0.421E-01
   8.143  0.482E+00  0.140E+00  0.101E+00  0.101E+00  0.140E+00
   8.145  0.500E+00  0.151E+00  0.990E-01  0.990E-01  0.151E+00
   8.147  0.225E+00  0.647E-01  0.479E-01  0.479E-01  0.647E-01
   8.149  0.350E+00  0.942E-01  0.809E-01  0.809E-01  0.942E-01
   8.151  0.194E+00  0.501E-01  0.469E-01  0.469E-01  0.501E-01
   8.153  0.254E-01  0.626E-02  0.641E-02  0.641E-02  0.626E-02
   8.155  0.652E-01  0.176E-01  0.150E-01  0.150E-01  0.176E-01
   8.157  0.265E+00  0.728E-01  0.597E-01  0.597E-01  0.728E-01
   8.159  0.214E+00  0.621E-01  0.446E-01  0.446E-01  0.621E-01
   8.161  0.129E+00  0.448E-01  0.199E-01  0.199E-01  0.448E-01
   8.163  0.480E-01  0.172E-01  0.685E-02  0.685E-02  0.172E-01
   8.165  0.662E-02  0.201E-02  0.130E-02  0.130E-02  0.201E-02
   8.167  0.732E-01  0.195E-01  0.171E-01  0.171E-01  0.195E-01
   8.169  0.255E+00  0.701E-01  0.574E-01  0.574E-01  0.701E-01
   8.171  0.250E+00  0.732E-01  0.519E-01  0.519E-01  0.732E-01
   8.173  0.141E+00  0.441E-01  0.262E-01  0.262E-01  0.441E-01
   8.175  0.266E-01  0.847E-02  0.482E-02  0.482E-02  0.847E-02
   8.177  0.798E-03  0.255E-03  0.144E-03  0.144E-03  0.255E-03
   8.179  0.301E-03  0.783E-04  0.722E-04  0.722E-04  0.783E-04
   8.181  0.158E-01  0.411E-02  0.379E-02  0.379E-02  0.411E-02
   8.183  0.127E+00  0.336E-01  0.300E-01  0.300E-01  0.336E-01
   8.185  0.233E+00  0.644E-01  0.522E-01  0.522E-01  0.644E-01
   8.187  0.167E+00  0.466E-01  0.368E-01  0.368E-01  0.466E-01
   8.189  0.125E+00  0.317E-01  0.308E-01  0.308E-01  0.317E-01
   8.191  0.489E-01  0.122E-01  0.122E-01  0.122E-01  0.122E-01
   8.193  0.217E-01  0.820E-02  0.266E-02  0.266E-02  0.820E-02
   8.195  0.132E+00  0.502E-01  0.155E-01  0.155E-01  0.502E-01
   8.197  0.174E+00  0.570E-01  0.298E-01  0.298E-01  0.570E-01
   8.199  0.747E-01  0.201E-01  0.173E-01  0.173E-01  0.201E-01
   8.201  0.152E+00  0.459E-01  0.300E-01  0.300E-01  0.459E-01
   8.203  0.271E+00  0.815E-01  0.538E-01  0.538E-01  0.815E-01
   8.205  0.211E+00  0.623E-01  0.431E-01  0.431E-01  0.623E-01
   8.207  0.139E+00  0.428E-01  0.268E-01  0.268E-01  0.428E-01
   8.209  0.119E+00  0.382E-01  0.211E-01  0.211E-01  0.382E-01
   8.211  0.270E-01  0.874E-02  0.478E-02  0.478E-02  0.874E-02
   8.213  0.880E-03  0.284E-03  0.156E-03  0.156E-03  0.284E-03
   8.215  0.883E-03  0.246E-03  0.196E-03  0.196E-03  0.246E-03
   8.217  0.694E-02  0.193E-02  0.154E-02  0.154E-02  0.193E-02
   8.219  0.751E-02  0.209E-02  0.167E-02  0.167E-02  0.209E-02
   8.221  0.868E-02  0.222E-02  0.212E-02  0.212E-02  0.222E-02
   8.223  0.806E-01  0.204E-01  0.199E-01  0.199E-01  0.204E-01
   8.225  0.129E+00  0.332E-01  0.312E-01  0.312E-01  0.332E-01
   8.227  0.140E+00  0.404E-01  0.295E-01  0.295E-01  0.404E-01
   8.229  0.135E+00  0.399E-01  0.276E-01  0.276E-01  0.399E-01
   8.231  0.211E-01  0.623E-02  0.430E-02  0.430E-02  0.623E-02
   8.233  0.158E-01  0.461E-02  0.329E-02  0.329E-02  0.461E-02
   8.235  0.104E+00  0.293E-01  0.228E-01  0.228E-01  0.293E-01
   8.237  0.984E-01  0.268E-01  0.224E-01  0.224E-01  0.268E-01
   8.239  0.358E-01  0.117E-01  0.619E-02  0.619E-02  0.117E-01
   8.241  0.115E+00  0.411E-01  0.164E-01  0.164E-01  0.411E-01
   8.243  0.158E+00  0.530E-01  0.257E-01  0.257E-01  0.530E-01
   8.245  0.154E+00  0.453E-01  0.319E-01  0.319E-01  0.453E-01
   8.247  0.113E+00  0.298E-01  0.267E-01  0.267E-01  0.298E-01
   8.249  0.229E+00  0.734E-01  0.411E-01  0.411E-01  0.734E-01
   8.251  0.200E+00  0.687E-01  0.311E-01  0.311E-01  0.687E-01
   8.253  0.102E+00  0.320E-01  0.189E-01  0.189E-01  0.320E-01
   8.255  0.161E+00  0.481E-01  0.324E-01  0.324E-01  0.481E-01
   8.257  0.455E-01  0.136E-01  0.917E-02  0.917E-02  0.136E-01
   8.259  0.175E-02  0.521E-03  0.351E-03  0.351E-03  0.521E-03
   8.261  0.906E-05  0.270E-05  0.182E-05  0.182E-05  0.270E-05
   8.263  0.636E-08  0.190E-08  0.128E-08  0.128E-08  0.190E-08
   8.265  0.605E-12  0.181E-12  0.122E-12  0.122E-12  0.181E-12
   8.267  0.283E-13  0.945E-14  0.470E-14  0.470E-14  0.945E-14
   8.269  0.587E-09  0.194E-09  0.100E-09  0.100E-09  0.194E-09
   8.271  0.167E-05  0.545E-06  0.292E-06  0.292E-06  0.545E-06
   8.273  0.657E-03  0.211E-03  0.117E-03  0.117E-03  0.211E-03
   8.275  0.355E-01  0.113E-01  0.649E-02  0.649E-02  0.113E-01
   8.277  0.264E+00  0.826E-01  0.492E-01  0.492E-01  0.826E-01
   8.279  0.269E+00  0.835E-01  0.511E-01  0.511E-01  0.835E-01
   8.281  0.425E-01  0.129E-01  0.835E-02  0.835E-02  0.129E-01
   8.283  0.949E-01  0.261E-01  0.213E-01  0.213E-01  0.261E-01
   8.285  0.259E+00  0.722E-01  0.573E-01  0.573E-01  0.722E-01
   8.287  0.978E-01  0.276E-01  0.213E-01  0.213E-01  0.276E-01
   8.289  0.507E-02  0.145E-02  0.109E-02  0.109E-02  0.145E-02
   8.291  0.318E-03  0.735E-04  0.854E-04  0.854E-04  0.735E-04
   8.293  0.113E-01  0.253E-02  0.312E-02  0.312E-02  0.253E-02
   8.295  0.615E-01  0.138E-01  0.170E-01  0.170E-01  0.138E-01
   8.297  0.452E-01  0.101E-01  0.125E-01  0.125E-01  0.101E-01
   8.299  0.456E-02  0.102E-02  0.125E-02  0.125E-02  0.102E-02
   8.301  0.197E-02  0.576E-03  0.410E-03  0.410E-03  0.576E-03
   8.303  0.943E-02  0.287E-02  0.184E-02  0.184E-02  0.287E-02
   8.305  0.350E-01  0.136E-01  0.384E-02  0.384E-02  0.136E-01
   8.307  0.170E+00  0.655E-01  0.195E-01  0.195E-01  0.655E-01
   8.309  0.325E+00  0.107E+00  0.550E-01  0.550E-01  0.107E+00
   8.311  0.272E+00  0.878E-01  0.484E-01  0.484E-01  0.878E-01
   8.313  0.511E-01  0.173E-01  0.829E-02  0.829E-02  0.173E-01
   8.315  0.315E-02  0.104E-02  0.542E-03  0.542E-03  0.104E-02
   8.317  0.420E-01  0.128E-01  0.822E-02  0.822E-02  0.128E-01
   8.319  0.161E+00  0.488E-01  0.315E-01  0.315E-01  0.488E-01
   8.321  0.832E-01  0.253E-01  0.163E-01  0.163E-01  0.253E-01
   8.323  0.583E-02  0.177E-02  0.114E-02  0.114E-02  0.177E-02
   8.325  0.987E-04  0.325E-04  0.168E-04  0.168E-04  0.325E-04
   8.327  0.118E-02  0.429E-03  0.163E-03  0.163E-03  0.429E-03
   8.329  0.439E-02  0.159E-02  0.607E-03  0.607E-03  0.159E-02
   8.331  0.376E-02  0.116E-02  0.715E-03  0.715E-03  0.116E-02
   8.333  0.319E-01  0.756E-02  0.840E-02  0.840E-02  0.756E-02
   8.335  0.924E-01  0.224E-01  0.238E-01  0.238E-01  0.224E-01
   8.337  0.110E+00  0.342E-01  0.208E-01  0.208E-01  0.342E-01
   8.339  0.215E+00  0.753E-01  0.323E-01  0.323E-01  0.753E-01
   8.341  0.137E+00  0.484E-01  0.201E-01  0.201E-01  0.484E-01
   8.343  0.935E-01  0.241E-01  0.226E-01  0.226E-01  0.241E-01
   8.345  0.144E+00  0.335E-01  0.383E-01  0.383E-01  0.335E-01
   8.347  0.577E-01  0.131E-01  0.158E-01  0.158E-01  0.131E-01
   8.349  0.477E-02  0.106E-02  0.132E-02  0.132E-02  0.106E-02
   8.351  0.673E-04  0.152E-04  0.184E-04  0.184E-04  0.152E-04
   8.353  0.990E-03  0.304E-03  0.191E-03  0.191E-03  0.304E-03
   8.355  0.337E-01  0.103E-01  0.651E-02  0.651E-02  0.103E-01
   8.357  0.155E+00  0.476E-01  0.300E-01  0.300E-01  0.476E-01
   8.359  0.974E-01  0.299E-01  0.188E-01  0.188E-01  0.299E-01
   8.361  0.336E-01  0.112E-01  0.563E-02  0.563E-02  0.112E-01
   8.363  0.150E+00  0.517E-01  0.235E-01  0.235E-01  0.517E-01
   8.365  0.190E+00  0.669E-01  0.280E-01  0.280E-01  0.669E-01
   8.367  0.148E+00  0.586E-01  0.154E-01  0.154E-01  0.586E-01
   8.369  0.126E+00  0.519E-01  0.109E-01  0.109E-01  0.519E-01
   8.371  0.199E-01  0.824E-02  0.171E-02  0.171E-02  0.824E-02
   8.373  0.433E-03  0.179E-03  0.371E-04  0.371E-04  0.179E-03
   8.375  0.464E-05  0.133E-05  0.995E-06  0.995E-06  0.133E-05
   8.377  0.743E-03  0.176E-03  0.195E-03  0.195E-03  0.176E-03
   8.379  0.223E-01  0.529E-02  0.585E-02  0.585E-02  0.529E-02
   8.381  0.971E-01  0.238E-01  0.248E-01  0.248E-01  0.238E-01
   8.383  0.155E+00  0.466E-01  0.308E-01  0.308E-01  0.466E-01
   8.385  0.284E+00  0.898E-01  0.519E-01  0.519E-01  0.898E-01
   8.387  0.145E+00  0.444E-01  0.284E-01  0.284E-01  0.444E-01
   8.389  0.163E-01  0.488E-02  0.325E-02  0.325E-02  0.488E-02
   8.391  0.726E-03  0.207E-03  0.156E-03  0.156E-03  0.207E-03
   8.393  0.801E-02  0.175E-02  0.225E-02  0.225E-02  0.175E-02
   8.395  0.489E-01  0.107E-01  0.137E-01  0.137E-01  0.107E-01
   8.397  0.672E-01  0.173E-01  0.163E-01  0.163E-01  0.173E-01
   8.399  0.219E+00  0.698E-01  0.397E-01  0.397E-01  0.698E-01
   8.401  0.333E+00  0.111E+00  0.557E-01  0.557E-01  0.111E+00
   8.403  0.115E+00  0.392E-01  0.181E-01  0.181E-01  0.392E-01
   8.405  0.919E-02  0.322E-02  0.138E-02  0.138E-02  0.322E-02
   8.407  0.551E-02  0.203E-02  0.731E-03  0.731E-03  0.203E-02
   8.409  0.811E-02  0.284E-02  0.121E-02  0.121E-02  0.284E-02
   8.411  0.977E-01  0.337E-01  0.152E-01  0.152E-01  0.337E-01
   8.413  0.224E+00  0.774E-01  0.349E-01  0.349E-01  0.774E-01
   8.415  0.726E-01  0.250E-01  0.113E-01  0.113E-01  0.250E-01
   8.417  0.361E-01  0.121E-01  0.593E-02  0.593E-02  0.121E-01
   8.419  0.249E+00  0.814E-01  0.434E-01  0.434E-01  0.814E-01
   8.421  0.429E+00  0.139E+00  0.759E-01  0.759E-01  0.139E+00
   8.423  0.342E+00  0.115E+00  0.557E-01  0.557E-01  0.115E+00
   8.425  0.121E+00  0.416E-01  0.190E-01  0.190E-01  0.416E-01
   8.427  0.111E+00  0.383E-01  0.174E-01  0.174E-01  0.383E-01
   8.429  0.818E-01  0.291E-01  0.118E-01  0.118E-01  0.291E-01
   8.431  0.122E+00  0.501E-01  0.110E-01  0.110E-01  0.501E-01
   8.433  0.203E+00  0.783E-01  0.232E-01  0.232E-01  0.783E-01
   8.435  0.168E+00  0.538E-01  0.304E-01  0.304E-01  0.538E-01
   8.437  0.865E-01  0.236E-01  0.197E-01  0.197E-01  0.236E-01
   8.439  0.303E-01  0.105E-01  0.463E-02  0.463E-02  0.105E-01
   8.441  0.247E-01  0.877E-02  0.360E-02  0.360E-02  0.877E-02
   8.443  0.126E+00  0.412E-01  0.219E-01  0.219E-01  0.412E-01
   8.445  0.239E+00  0.721E-01  0.473E-01  0.473E-01  0.721E-01
   8.447  0.176E+00  0.529E-01  0.352E-01  0.352E-01  0.529E-01
   8.449  0.264E-01  0.809E-02  0.513E-02  0.513E-02  0.809E-02
   8.451  0.941E-03  0.303E-03  0.168E-03  0.168E-03  0.303E-03
   8.453  0.159E-01  0.545E-02  0.250E-02  0.250E-02  0.545E-02
   8.455  0.967E-01  0.331E-01  0.152E-01  0.152E-01  0.331E-01
   8.457  0.800E-01  0.274E-01  0.126E-01  0.126E-01  0.274E-01
   8.459  0.235E-01  0.643E-02  0.534E-02  0.534E-02  0.643E-02
   8.461  0.689E-01  0.159E-01  0.185E-01  0.185E-01  0.159E-01
   8.463  0.437E-01  0.101E-01  0.117E-01  0.117E-01  0.101E-01
   8.465  0.413E-02  0.995E-03  0.107E-02  0.107E-02  0.995E-03
   8.467  0.949E-02  0.321E-02  0.153E-02  0.153E-02  0.321E-02
   8.469  0.707E-01  0.241E-01  0.112E-01  0.112E-01  0.241E-01
   8.471  0.110E+00  0.378E-01  0.175E-01  0.175E-01  0.378E-01
   8.473  0.257E-01  0.877E-02  0.405E-02  0.405E-02  0.877E-02
   8.475  0.819E-03  0.280E-03  0.129E-03  0.129E-03  0.280E-03
   8.477  0.603E-05  0.213E-05  0.881E-06  0.881E-06  0.213E-05
   8.479  0.253E-03  0.932E-04  0.331E-04  0.331E-04  0.932E-04
   8.481  0.473E-02  0.165E-02  0.718E-03  0.718E-03  0.165E-02
   8.483  0.535E-01  0.162E-01  0.106E-01  0.106E-01  0.162E-01
   8.485  0.273E+00  0.813E-01  0.554E-01  0.554E-01  0.813E-01
   8.487  0.370E+00  0.115E+00  0.700E-01  0.700E-01  0.115E+00
   8.489  0.272E+00  0.872E-01  0.487E-01  0.487E-01  0.872E-01
   8.491  0.165E+00  0.510E-01  0.314E-01  0.314E-01  0.510E-01
   8.493  0.113E+00  0.314E-01  0.252E-01  0.252E-01  0.314E-01
   8.495  0.208E+00  0.629E-01  0.411E-01  0.411E-01  0.629E-01
   8.497  0.329E+00  0.106E+00  0.580E-01  0.580E-01  0.106E+00
   8.499  0.250E+00  0.937E-01  0.315E-01  0.315E-01  0.937E-01
   8.501  0.172E+00  0.617E-01  0.245E-01  0.245E-01  0.617E-01
   8.503  0.143E+00  0.400E-01  0.312E-01  0.312E-01  0.400E-01
   8.505  0.147E+00  0.440E-01  0.293E-01  0.293E-01  0.440E-01
   8.507  0.165E+00  0.541E-01  0.286E-01  0.286E-01  0.541E-01
   8.509  0.120E+00  0.400E-01  0.200E-01  0.200E-01  0.400E-01
   8.511  0.797E-01  0.253E-01  0.146E-01  0.146E-01  0.253E-01
   8.513  0.278E-01  0.870E-02  0.520E-02  0.520E-02  0.870E-02
   8.515  0.390E-01  0.123E-01  0.726E-02  0.726E-02  0.123E-01
   8.517  0.119E+00  0.372E-01  0.220E-01  0.220E-01  0.372E-01
   8.519  0.576E-01  0.181E-01  0.107E-01  0.107E-01  0.181E-01
   8.521  0.529E-01  0.165E-01  0.990E-02  0.990E-02  0.165E-01
   8.523  0.465E-01  0.145E-01  0.872E-02  0.872E-02  0.145E-01
   8.525  0.604E-02  0.190E-02  0.112E-02  0.112E-02  0.190E-02
   8.527  0.943E-02  0.344E-02  0.128E-02  0.128E-02  0.344E-02
   8.529  0.108E+00  0.368E-01  0.173E-01  0.173E-01  0.368E-01
   8.531  0.260E+00  0.838E-01  0.461E-01  0.461E-01  0.838E-01
   8.533  0.187E+00  0.551E-01  0.383E-01  0.383E-01  0.551E-01
   8.535  0.500E+00  0.159E+00  0.906E-01  0.906E-01  0.159E+00
   8.537  0.180E+01  0.583E+00  0.318E+00  0.318E+00  0.583E+00
   8.539  0.186E+01  0.599E+00  0.331E+00  0.331E+00  0.599E+00
   8.541  0.122E+01  0.391E+00  0.217E+00  0.217E+00  0.391E+00
   8.543  0.881E+00  0.282E+00  0.158E+00  0.158E+00  0.282E+00
   8.545  0.859E+00  0.273E+00  0.157E+00  0.157E+00  0.273E+00
   8.547  0.790E+00  0.253E+00  0.142E+00  0.142E+00  0.253E+00
   8.549  0.619E+00  0.199E+00  0.111E+00  0.111E+00  0.199E+00
   8.551  0.809E+00  0.260E+00  0.145E+00  0.145E+00  0.260E+00
   8.553  0.554E+00  0.178E+00  0.985E-01  0.985E-01  0.178E+00
   8.555  0.397E+00  0.130E+00  0.687E-01  0.687E-01  0.130E+00
   8.557  0.728E+00  0.235E+00  0.128E+00  0.128E+00  0.235E+00
   8.559  0.375E+00  0.121E+00  0.668E-01  0.668E-01  0.121E+00
   8.561  0.210E+00  0.680E-01  0.369E-01  0.369E-01  0.680E-01
   8.563  0.297E+00  0.951E-01  0.536E-01  0.536E-01  0.951E-01
   8.565  0.612E+00  0.195E+00  0.111E+00  0.111E+00  0.195E+00
   8.567  0.499E+00  0.160E+00  0.890E-01  0.890E-01  0.160E+00
   8.569  0.220E+00  0.798E-01  0.299E-01  0.299E-01  0.798E-01
   8.571  0.293E+00  0.109E+00  0.373E-01  0.373E-01  0.109E+00
   8.573  0.448E+00  0.146E+00  0.779E-01  0.779E-01  0.146E+00
   8.575  0.444E+00  0.140E+00  0.819E-01  0.819E-01  0.140E+00
   8.577  0.226E+00  0.691E-01  0.441E-01  0.441E-01  0.691E-01
   8.579  0.194E+00  0.600E-01  0.368E-01  0.368E-01  0.600E-01
   8.581  0.871E-01  0.264E-01  0.172E-01  0.172E-01  0.264E-01
   8.583  0.367E+00  0.113E+00  0.704E-01  0.704E-01  0.113E+00
   8.585  0.678E+00  0.212E+00  0.127E+00  0.127E+00  0.212E+00
   8.587  0.305E+00  0.961E-01  0.564E-01  0.564E-01  0.961E-01
   8.589  0.151E+00  0.479E-01  0.278E-01  0.278E-01  0.479E-01
   8.591  0.100E+00  0.320E-01  0.181E-01  0.181E-01  0.320E-01
   8.593  0.139E+00  0.452E-01  0.243E-01  0.243E-01  0.452E-01
   8.595  0.292E+00  0.923E-01  0.538E-01  0.538E-01  0.923E-01
   8.597  0.429E+00  0.134E+00  0.804E-01  0.804E-01  0.134E+00
   8.599  0.204E+00  0.639E-01  0.382E-01  0.382E-01  0.639E-01
   8.601  0.903E-01  0.294E-01  0.157E-01  0.157E-01  0.294E-01
   8.603  0.808E-01  0.266E-01  0.138E-01  0.138E-01  0.266E-01
   8.605  0.138E-01  0.454E-02  0.238E-02  0.238E-02  0.454E-02
   8.607  0.589E-01  0.187E-01  0.107E-01  0.107E-01  0.187E-01
   8.609  0.377E+00  0.120E+00  0.692E-01  0.692E-01  0.120E+00
   8.611  0.846E+00  0.269E+00  0.154E+00  0.154E+00  0.269E+00
   8.613  0.812E+00  0.261E+00  0.145E+00  0.145E+00  0.261E+00
   8.615  0.444E+00  0.144E+00  0.779E-01  0.779E-01  0.144E+00
   8.617  0.228E+00  0.719E-01  0.419E-01  0.419E-01  0.719E-01
   8.619  0.166E+00  0.509E-01  0.322E-01  0.322E-01  0.509E-01
   8.621  0.202E+00  0.613E-01  0.400E-01  0.400E-01  0.613E-01
   8.623  0.446E+00  0.138E+00  0.855E-01  0.855E-01  0.138E+00
   8.625  0.393E+00  0.122E+00  0.746E-01  0.746E-01  0.122E+00
   8.627  0.296E+00  0.916E-01  0.564E-01  0.564E-01  0.916E-01
   8.629  0.235E+00  0.749E-01  0.428E-01  0.428E-01  0.749E-01
   8.631  0.158E+00  0.511E-01  0.277E-01  0.277E-01  0.511E-01
   8.633  0.783E-01  0.258E-01  0.133E-01  0.133E-01  0.258E-01
   8.635  0.424E-01  0.138E-01  0.735E-02  0.735E-02  0.138E-01
   8.637  0.162E+00  0.519E-01  0.289E-01  0.289E-01  0.519E-01
   8.639  0.321E+00  0.101E+00  0.596E-01  0.596E-01  0.101E+00
   8.641  0.402E+00  0.125E+00  0.757E-01  0.757E-01  0.125E+00
   8.643  0.441E+00  0.144E+00  0.766E-01  0.766E-01  0.144E+00
   8.645  0.437E+00  0.156E+00  0.630E-01  0.630E-01  0.156E+00
   8.647  0.368E+00  0.126E+00  0.581E-01  0.581E-01  0.126E+00
   8.649  0.151E+00  0.497E-01  0.257E-01  0.257E-01  0.497E-01
   8.651  0.143E-01  0.427E-02  0.290E-02  0.290E-02  0.427E-02
   8.653  0.273E-01  0.630E-02  0.737E-02  0.737E-02  0.630E-02
   8.655  0.129E+00  0.366E-01  0.280E-01  0.280E-01  0.366E-01
   8.657  0.413E+00  0.127E+00  0.796E-01  0.796E-01  0.127E+00
   8.659  0.336E+00  0.105E+00  0.631E-01  0.631E-01  0.105E+00
   8.661  0.244E+00  0.746E-01  0.475E-01  0.475E-01  0.746E-01
   8.663  0.166E+00  0.504E-01  0.327E-01  0.327E-01  0.504E-01
   8.665  0.202E-01  0.618E-02  0.391E-02  0.391E-02  0.618E-02
   8.667  0.371E-01  0.122E-01  0.636E-02  0.636E-02  0.122E-01
   8.669  0.174E+00  0.563E-01  0.307E-01  0.307E-01  0.563E-01
   8.671  0.290E+00  0.930E-01  0.522E-01  0.522E-01  0.930E-01
   8.673  0.154E+00  0.490E-01  0.279E-01  0.279E-01  0.490E-01
   8.675  0.249E+00  0.779E-01  0.468E-01  0.468E-01  0.779E-01
   8.677  0.397E+00  0.124E+00  0.743E-01  0.743E-01  0.124E+00
   8.679  0.173E+00  0.548E-01  0.319E-01  0.319E-01  0.548E-01
   8.681  0.313E+00  0.964E-01  0.599E-01  0.599E-01  0.964E-01
   8.683  0.428E+00  0.133E+00  0.812E-01  0.812E-01  0.133E+00
   8.685  0.204E+00  0.637E-01  0.384E-01  0.384E-01  0.637E-01
   8.687  0.252E-01  0.787E-02  0.475E-02  0.475E-02  0.787E-02
   8.689  0.154E-01  0.496E-02  0.275E-02  0.275E-02  0.496E-02
   8.691  0.316E-01  0.104E-01  0.536E-02  0.536E-02  0.104E-01
   8.693  0.329E-01  0.105E-01  0.599E-02  0.599E-02  0.105E-01
   8.695  0.159E+00  0.480E-01  0.315E-01  0.315E-01  0.480E-01
   8.697  0.271E+00  0.826E-01  0.526E-01  0.526E-01  0.826E-01
   8.699  0.222E+00  0.703E-01  0.409E-01  0.409E-01  0.703E-01
   8.701  0.166E+00  0.516E-01  0.312E-01  0.312E-01  0.516E-01
   8.703  0.335E+00  0.102E+00  0.659E-01  0.659E-01  0.102E+00
   8.705  0.257E+00  0.783E-01  0.500E-01  0.500E-01  0.783E-01
   8.707  0.419E-01  0.128E-01  0.814E-02  0.814E-02  0.128E-01
   8.709  0.113E-01  0.369E-02  0.198E-02  0.198E-02  0.369E-02
   8.711  0.133E-01  0.439E-02  0.228E-02  0.228E-02  0.439E-02
   8.713  0.433E-01  0.138E-01  0.785E-02  0.785E-02  0.138E-01
   8.715  0.219E+00  0.690E-01  0.405E-01  0.405E-01  0.690E-01
   8.717  0.327E+00  0.999E-01  0.635E-01  0.635E-01  0.999E-01
   8.719  0.201E+00  0.619E-01  0.386E-01  0.386E-01  0.619E-01
   8.721  0.181E+00  0.644E-01  0.259E-01  0.259E-01  0.644E-01
   8.723  0.227E+00  0.902E-01  0.232E-01  0.232E-01  0.902E-01
   8.725  0.230E+00  0.782E-01  0.368E-01  0.368E-01  0.782E-01
   8.727  0.200E+00  0.599E-01  0.401E-01  0.401E-01  0.599E-01
   8.729  0.359E-01  0.107E-01  0.730E-02  0.730E-02  0.107E-01
   8.731  0.493E-01  0.157E-01  0.898E-02  0.898E-02  0.157E-01
   8.733  0.186E+00  0.591E-01  0.338E-01  0.338E-01  0.591E-01
   8.735  0.972E-01  0.309E-01  0.177E-01  0.177E-01  0.309E-01
   8.737  0.473E-01  0.148E-01  0.887E-02  0.887E-02  0.148E-01
   8.739  0.297E+00  0.917E-01  0.567E-01  0.567E-01  0.917E-01
   8.741  0.312E+00  0.957E-01  0.605E-01  0.605E-01  0.957E-01
   8.743  0.521E-01  0.159E-01  0.101E-01  0.101E-01  0.159E-01
   8.745  0.796E-01  0.256E-01  0.142E-01  0.142E-01  0.256E-01
   8.747  0.169E+00  0.543E-01  0.303E-01  0.303E-01  0.543E-01
   8.749  0.137E+00  0.417E-01  0.269E-01  0.269E-01  0.417E-01
   8.751  0.316E+00  0.950E-01  0.631E-01  0.631E-01  0.950E-01
   8.753  0.272E+00  0.844E-01  0.514E-01  0.514E-01  0.844E-01
   8.755  0.592E-01  0.189E-01  0.107E-01  0.107E-01  0.189E-01
   8.757  0.426E-02  0.150E-02  0.633E-03  0.633E-03  0.150E-02
   8.759  0.165E-01  0.553E-02  0.273E-02  0.273E-02  0.553E-02
   8.761  0.119E+00  0.391E-01  0.204E-01  0.204E-01  0.391E-01
   8.763  0.254E+00  0.788E-01  0.481E-01  0.481E-01  0.788E-01
   8.765  0.207E+00  0.623E-01  0.414E-01  0.414E-01  0.623E-01
   8.767  0.312E-01  0.932E-02  0.628E-02  0.628E-02  0.932E-02
   8.769  0.182E-02  0.565E-03  0.345E-03  0.345E-03  0.565E-03
   8.771  0.406E-01  0.129E-01  0.743E-02  0.743E-02  0.129E-01
   8.773  0.195E+00  0.618E-01  0.358E-01  0.358E-01  0.618E-01
   8.775  0.214E+00  0.665E-01  0.407E-01  0.407E-01  0.665E-01
   8.777  0.372E+00  0.113E+00  0.730E-01  0.730E-01  0.113E+00
   8.779  0.197E+00  0.603E-01  0.384E-01  0.384E-01  0.603E-01
   8.781  0.149E-01  0.459E-02  0.286E-02  0.286E-02  0.459E-02
   8.783  0.169E-03  0.522E-04  0.322E-04  0.322E-04  0.522E-04
   8.785  0.254E-02  0.757E-03  0.511E-03  0.511E-03  0.757E-03
   8.787  0.663E-01  0.198E-01  0.134E-01  0.134E-01  0.198E-01
   8.789  0.235E+00  0.700E-01  0.473E-01  0.473E-01  0.700E-01
   8.791  0.113E+00  0.337E-01  0.227E-01  0.227E-01  0.337E-01
   8.793  0.334E-01  0.104E-01  0.626E-02  0.626E-02  0.104E-01
   8.795  0.175E+00  0.555E-01  0.322E-01  0.322E-01  0.555E-01
   8.797  0.159E+00  0.503E-01  0.292E-01  0.292E-01  0.503E-01
   8.799  0.196E-01  0.619E-02  0.359E-02  0.359E-02  0.619E-02
   8.801  0.739E-02  0.261E-02  0.108E-02  0.108E-02  0.261E-02
   8.803  0.160E+00  0.560E-01  0.240E-01  0.240E-01  0.560E-01
   8.805  0.493E+00  0.170E+00  0.762E-01  0.762E-01  0.170E+00
   8.807  0.207E+00  0.706E-01  0.329E-01  0.329E-01  0.706E-01
   8.809  0.118E-01  0.398E-02  0.193E-02  0.193E-02  0.398E-02
   8.811  0.164E-02  0.495E-03  0.327E-03  0.327E-03  0.495E-03
   8.813  0.514E-01  0.154E-01  0.103E-01  0.103E-01  0.154E-01
   8.815  0.251E+00  0.755E-01  0.498E-01  0.498E-01  0.755E-01
   8.817  0.315E+00  0.983E-01  0.593E-01  0.593E-01  0.983E-01
   8.819  0.359E+00  0.114E+00  0.652E-01  0.652E-01  0.114E+00
   8.821  0.315E+00  0.101E+00  0.569E-01  0.569E-01  0.101E+00
   8.823  0.109E+00  0.350E-01  0.193E-01  0.193E-01  0.350E-01
   8.825  0.779E-02  0.252E-02  0.138E-02  0.138E-02  0.252E-02
   8.827  0.835E-04  0.270E-04  0.148E-04  0.148E-04  0.270E-04
   8.829  0.450E-04  0.129E-04  0.967E-05  0.967E-05  0.129E-04
   8.831  0.554E-02  0.158E-02  0.119E-02  0.119E-02  0.158E-02
   8.833  0.923E-01  0.263E-01  0.198E-01  0.198E-01  0.263E-01
   8.835  0.208E+00  0.595E-01  0.448E-01  0.448E-01  0.595E-01
   8.837  0.638E-01  0.182E-01  0.137E-01  0.137E-01  0.182E-01
   8.839  0.117E-01  0.348E-02  0.238E-02  0.238E-02  0.348E-02
   8.841  0.131E+00  0.395E-01  0.262E-01  0.262E-01  0.395E-01
   8.843  0.337E+00  0.103E+00  0.658E-01  0.658E-01  0.103E+00
   8.845  0.285E+00  0.891E-01  0.535E-01  0.535E-01  0.891E-01
   8.847  0.711E-01  0.225E-01  0.131E-01  0.131E-01  0.225E-01
   8.849  0.470E-01  0.157E-01  0.778E-02  0.778E-02  0.157E-01
   8.851  0.121E+00  0.407E-01  0.199E-01  0.199E-01  0.407E-01
   8.853  0.449E-01  0.151E-01  0.737E-02  0.737E-02  0.151E-01
   8.855  0.238E-02  0.797E-03  0.392E-03  0.392E-03  0.797E-03
   8.857  0.100E-01  0.326E-02  0.176E-02  0.176E-02  0.326E-02
   8.859  0.107E+00  0.347E-01  0.188E-01  0.188E-01  0.347E-01
   8.861  0.155E+00  0.503E-01  0.272E-01  0.272E-01  0.503E-01
   8.863  0.493E-01  0.152E-01  0.944E-02  0.944E-02  0.152E-01
   8.865  0.155E+00  0.440E-01  0.337E-01  0.337E-01  0.440E-01
   8.867  0.190E+00  0.541E-01  0.407E-01  0.407E-01  0.541E-01
   8.869  0.279E+00  0.849E-01  0.544E-01  0.544E-01  0.849E-01
   8.871  0.453E+00  0.140E+00  0.866E-01  0.866E-01  0.140E+00
   8.873  0.118E+00  0.365E-01  0.223E-01  0.223E-01  0.365E-01
   8.875  0.444E-02  0.139E-02  0.834E-03  0.834E-03  0.139E-02
   8.877  0.240E-04  0.750E-05  0.447E-05  0.447E-05  0.750E-05
   8.879  0.182E-07  0.571E-08  0.338E-08  0.338E-08  0.571E-08
   8.881  0.766E-10  0.325E-10  0.578E-11  0.578E-11  0.325E-10
   8.883  0.295E-06  0.126E-06  0.215E-07  0.215E-07  0.126E-06
   8.885  0.158E-03  0.674E-04  0.115E-04  0.115E-04  0.674E-04
   8.887  0.114E-01  0.488E-02  0.830E-03  0.830E-03  0.488E-02
   8.889  0.112E+00  0.478E-01  0.813E-02  0.813E-02  0.478E-01
   8.891  0.148E+00  0.634E-01  0.108E-01  0.108E-01  0.634E-01
   8.893  0.284E-01  0.119E-01  0.228E-02  0.228E-02  0.119E-01
   8.895  0.758E-01  0.236E-01  0.143E-01  0.143E-01  0.236E-01
   8.897  0.505E+00  0.155E+00  0.973E-01  0.973E-01  0.155E+00
   8.899  0.709E+00  0.217E+00  0.138E+00  0.138E+00  0.217E+00
   8.901  0.360E+00  0.113E+00  0.666E-01  0.666E-01  0.113E+00
   8.903  0.144E+00  0.465E-01  0.253E-01  0.253E-01  0.465E-01
   8.905  0.180E+00  0.587E-01  0.313E-01  0.313E-01  0.587E-01
   8.907  0.744E-01  0.243E-01  0.129E-01  0.129E-01  0.243E-01
   8.909  0.428E-02  0.139E-02  0.743E-03  0.743E-03  0.139E-02
   8.911  0.333E-04  0.109E-04  0.579E-05  0.579E-05  0.109E-04
   8.913  0.351E-07  0.114E-07  0.610E-08  0.610E-08  0.114E-07
   8.915  0.362E-09  0.114E-09  0.668E-10  0.668E-10  0.114E-09
   8.917  0.110E-05  0.345E-06  0.203E-06  0.203E-06  0.345E-06
   8.919  0.462E-03  0.146E-03  0.856E-04  0.856E-04  0.146E-03
   8.921  0.278E-01  0.873E-02  0.516E-02  0.516E-02  0.873E-02
   8.923  0.260E+00  0.813E-01  0.488E-01  0.488E-01  0.813E-01
   8.925  0.438E+00  0.136E+00  0.832E-01  0.832E-01  0.136E+00
   8.927  0.140E+00  0.432E-01  0.270E-01  0.270E-01  0.432E-01
   8.929  0.839E-02  0.255E-02  0.164E-02  0.164E-02  0.255E-02
   8.931  0.319E-01  0.887E-02  0.706E-02  0.706E-02  0.887E-02
   8.933  0.178E+00  0.495E-01  0.394E-01  0.394E-01  0.495E-01
   8.935  0.135E+00  0.375E-01  0.299E-01  0.299E-01  0.375E-01
   8.937  0.138E-01  0.385E-02  0.306E-02  0.306E-02  0.385E-02
   8.939  0.192E-03  0.534E-04  0.425E-04  0.425E-04  0.534E-04
   8.941  0.365E-06  0.102E-06  0.807E-07  0.807E-07  0.102E-06
   8.943  0.775E-05  0.244E-05  0.143E-05  0.143E-05  0.244E-05
   8.945  0.186E-02  0.588E-03  0.344E-03  0.344E-03  0.588E-03
   8.947  0.665E-01  0.210E-01  0.122E-01  0.122E-01  0.210E-01
   8.949  0.426E+00  0.135E+00  0.777E-01  0.777E-01  0.135E+00
   8.951  0.654E+00  0.209E+00  0.118E+00  0.118E+00  0.209E+00
   8.953  0.261E+00  0.844E-01  0.462E-01  0.462E-01  0.844E-01
   8.955  0.227E-01  0.740E-02  0.396E-02  0.396E-02  0.740E-02
   8.957  0.343E-03  0.112E-03  0.594E-04  0.594E-04  0.112E-03
   8.959  0.777E-06  0.255E-06  0.134E-06  0.134E-06  0.255E-06
   8.961  0.457E-09  0.139E-09  0.895E-10  0.895E-10  0.139E-09
   8.963  0.688E-06  0.190E-06  0.154E-06  0.154E-06  0.190E-06
   8.965  0.305E-03  0.843E-04  0.682E-04  0.682E-04  0.843E-04
   8.967  0.184E-01  0.508E-02  0.411E-02  0.411E-02  0.508E-02
   8.969  0.158E+00  0.439E-01  0.349E-01  0.349E-01  0.439E-01
   8.971  0.317E+00  0.934E-01  0.650E-01  0.650E-01  0.934E-01
   8.973  0.474E+00  0.148E+00  0.893E-01  0.893E-01  0.148E+00
   8.975  0.266E+00  0.840E-01  0.488E-01  0.488E-01  0.840E-01
   8.977  0.134E+00  0.539E-01  0.129E-01  0.129E-01  0.539E-01
   8.979  0.160E+00  0.680E-01  0.118E-01  0.118E-01  0.680E-01
   8.981  0.325E-01  0.138E-01  0.244E-02  0.244E-02  0.138E-01
   8.983  0.238E-01  0.782E-02  0.407E-02  0.407E-02  0.782E-02
   8.985  0.141E+00  0.459E-01  0.247E-01  0.247E-01  0.459E-01
   8.987  0.118E+00  0.383E-01  0.206E-01  0.206E-01  0.383E-01
   8.989  0.270E-01  0.864E-02  0.486E-02  0.486E-02  0.864E-02
   8.991  0.205E+00  0.646E-01  0.380E-01  0.380E-01  0.646E-01
   8.993  0.485E+00  0.152E+00  0.901E-01  0.901E-01  0.152E+00
   8.995  0.186E+00  0.585E-01  0.348E-01  0.348E-01  0.585E-01
   8.997  0.184E-01  0.590E-02  0.333E-02  0.333E-02  0.590E-02
   8.999  0.975E-01  0.322E-01  0.166E-01  0.166E-01  0.322E-01
   9.001  0.186E+00  0.614E-01  0.315E-01  0.315E-01  0.614E-01
   9.003  0.120E+00  0.407E-01  0.195E-01  0.195E-01  0.407E-01
   9.005  0.204E+00  0.673E-01  0.349E-01  0.349E-01  0.673E-01
   9.007  0.575E+00  0.176E+00  0.111E+00  0.111E+00  0.176E+00
   9.009  0.555E+00  0.168E+00  0.109E+00  0.109E+00  0.168E+00
   9.011  0.794E-01  0.239E-01  0.158E-01  0.158E-01  0.239E-01
   9.013  0.587E-02  0.183E-02  0.111E-02  0.111E-02  0.183E-02
   9.015  0.125E+00  0.395E-01  0.230E-01  0.230E-01  0.395E-01
   9.017  0.516E+00  0.163E+00  0.951E-01  0.951E-01  0.163E+00
   9.019  0.571E+00  0.180E+00  0.105E+00  0.105E+00  0.180E+00
   9.021  0.727E+00  0.230E+00  0.134E+00  0.134E+00  0.230E+00
   9.023  0.350E+00  0.111E+00  0.645E-01  0.645E-01  0.111E+00
   9.025  0.254E+00  0.803E-01  0.469E-01  0.469E-01  0.803E-01
   9.027  0.167E+00  0.527E-01  0.308E-01  0.308E-01  0.527E-01
   9.029  0.420E-01  0.133E-01  0.776E-02  0.776E-02  0.133E-01
   9.031  0.196E+00  0.618E-01  0.362E-01  0.362E-01  0.618E-01
   9.033  0.202E+00  0.638E-01  0.373E-01  0.373E-01  0.638E-01
   9.035  0.283E-01  0.892E-02  0.522E-02  0.522E-02  0.892E-02
   9.037  0.614E-02  0.194E-02  0.114E-02  0.114E-02  0.194E-02
   9.039  0.103E+00  0.323E-01  0.190E-01  0.190E-01  0.323E-01
   9.041  0.254E+00  0.800E-01  0.469E-01  0.469E-01  0.800E-01
   9.043  0.854E-01  0.269E-01  0.158E-01  0.158E-01  0.269E-01
   9.045  0.262E-01  0.731E-02  0.580E-02  0.580E-02  0.731E-02
   9.047  0.162E+00  0.444E-01  0.365E-01  0.365E-01  0.444E-01
   9.049  0.249E+00  0.735E-01  0.509E-01  0.509E-01  0.735E-01
   9.051  0.377E+00  0.121E+00  0.674E-01  0.674E-01  0.121E+00
   9.053  0.283E+00  0.899E-01  0.513E-01  0.513E-01  0.899E-01
   9.055  0.428E-01  0.135E-01  0.788E-02  0.788E-02  0.135E-01
   9.057  0.339E-02  0.115E-02  0.549E-03  0.549E-03  0.115E-02
   9.059  0.498E-01  0.173E-01  0.759E-02  0.759E-02  0.173E-01
   9.061  0.141E+00  0.490E-01  0.215E-01  0.215E-01  0.490E-01
   9.063  0.743E-01  0.252E-01  0.120E-01  0.120E-01  0.252E-01
   9.065  0.194E+00  0.623E-01  0.346E-01  0.346E-01  0.623E-01
   9.067  0.332E+00  0.118E+00  0.483E-01  0.483E-01  0.118E+00
   9.069  0.194E+00  0.789E-01  0.184E-01  0.184E-01  0.789E-01
   9.071  0.352E-01  0.143E-01  0.328E-02  0.328E-02  0.143E-01
   9.073  0.825E-01  0.270E-01  0.143E-01  0.143E-01  0.270E-01
   9.075  0.164E+00  0.536E-01  0.286E-01  0.286E-01  0.536E-01
   9.077  0.448E-01  0.146E-01  0.780E-02  0.780E-02  0.146E-01
   9.079  0.131E-01  0.411E-02  0.241E-02  0.241E-02  0.411E-02
   9.081  0.141E+00  0.441E-01  0.262E-01  0.262E-01  0.441E-01
   9.083  0.234E+00  0.735E-01  0.437E-01  0.437E-01  0.735E-01
   9.085  0.545E-01  0.170E-01  0.102E-01  0.102E-01  0.170E-01
   9.087  0.479E-01  0.131E-01  0.109E-01  0.109E-01  0.131E-01
   9.089  0.186E+00  0.505E-01  0.427E-01  0.427E-01  0.505E-01
   9.091  0.102E+00  0.275E-01  0.233E-01  0.233E-01  0.275E-01
   9.093  0.748E-02  0.203E-02  0.171E-02  0.171E-02  0.203E-02
   9.095  0.870E-04  0.241E-04  0.194E-04  0.194E-04  0.241E-04
   9.097  0.261E-02  0.820E-03  0.484E-03  0.484E-03  0.820E-03
   9.099  0.796E-01  0.252E-01  0.146E-01  0.146E-01  0.252E-01
   9.101  0.376E+00  0.120E+00  0.673E-01  0.673E-01  0.120E+00
   9.103  0.294E+00  0.958E-01  0.512E-01  0.512E-01  0.958E-01
   9.105  0.385E-01  0.127E-01  0.654E-02  0.654E-02  0.127E-01
   9.107  0.793E-03  0.264E-03  0.133E-03  0.133E-03  0.264E-03
   9.109  0.239E-05  0.800E-06  0.398E-06  0.398E-06  0.800E-06
   9.111  0.123E-08  0.415E-09  0.199E-09  0.199E-09  0.415E-09
   9.113  0.659E-06  0.233E-06  0.963E-07  0.963E-07  0.233E-06
   9.115  0.272E-03  0.964E-04  0.398E-04  0.398E-04  0.964E-04
   9.117  0.154E-01  0.543E-02  0.225E-02  0.225E-02  0.543E-02
   9.119  0.127E+00  0.443E-01  0.190E-01  0.190E-01  0.443E-01
   9.121  0.256E+00  0.848E-01  0.432E-01  0.432E-01  0.848E-01
   9.123  0.246E+00  0.774E-01  0.455E-01  0.455E-01  0.774E-01
   9.125  0.520E-01  0.162E-01  0.976E-02  0.976E-02  0.162E-01
   9.127  0.169E-02  0.522E-03  0.322E-03  0.322E-03  0.522E-03
   9.129  0.958E-02  0.258E-02  0.221E-02  0.221E-02  0.258E-02
   9.131  0.112E+00  0.303E-01  0.259E-01  0.259E-01  0.303E-01
   9.133  0.179E+00  0.481E-01  0.412E-01  0.412E-01  0.481E-01
   9.135  0.384E-01  0.103E-01  0.885E-02  0.885E-02  0.103E-01
   9.137  0.112E-02  0.301E-03  0.257E-03  0.257E-03  0.301E-03
   9.139  0.521E-05  0.144E-05  0.117E-05  0.117E-05  0.144E-05
   9.141  0.363E-03  0.113E-03  0.685E-04  0.685E-04  0.113E-03
   9.143  0.218E-01  0.679E-02  0.413E-02  0.413E-02  0.679E-02
   9.145  0.178E+00  0.554E-01  0.336E-01  0.336E-01  0.554E-01
   9.147  0.196E+00  0.611E-01  0.371E-01  0.371E-01  0.611E-01
   9.149  0.294E-01  0.916E-02  0.556E-02  0.556E-02  0.916E-02
   9.151  0.116E-01  0.391E-02  0.191E-02  0.191E-02  0.391E-02
   9.153  0.125E+00  0.423E-01  0.203E-01  0.203E-01  0.423E-01
   9.155  0.213E+00  0.739E-01  0.328E-01  0.328E-01  0.739E-01
   9.157  0.195E+00  0.790E-01  0.186E-01  0.186E-01  0.790E-01
   9.159  0.148E+00  0.624E-01  0.117E-01  0.117E-01  0.624E-01
   9.161  0.189E-01  0.795E-02  0.148E-02  0.148E-02  0.795E-02
   9.163  0.539E-02  0.179E-02  0.901E-03  0.901E-03  0.179E-02
   9.165  0.797E-01  0.261E-01  0.138E-01  0.138E-01  0.261E-01
   9.167  0.170E+00  0.557E-01  0.295E-01  0.295E-01  0.557E-01
   9.169  0.728E-01  0.234E-01  0.130E-01  0.130E-01  0.234E-01
   9.171  0.184E+00  0.570E-01  0.348E-01  0.348E-01  0.570E-01
   9.173  0.191E+00  0.590E-01  0.364E-01  0.364E-01  0.590E-01
   9.175  0.911E-01  0.255E-01  0.200E-01  0.200E-01  0.255E-01
   9.177  0.193E+00  0.522E-01  0.446E-01  0.446E-01  0.522E-01
   9.179  0.134E+00  0.413E-01  0.256E-01  0.256E-01  0.413E-01
   9.181  0.167E+00  0.598E-01  0.235E-01  0.235E-01  0.598E-01
   9.183  0.613E-01  0.221E-01  0.851E-02  0.851E-02  0.221E-01
   9.185  0.313E-02  0.113E-02  0.434E-03  0.434E-03  0.113E-02
   9.187  0.216E-04  0.780E-05  0.299E-05  0.299E-05  0.780E-05
   9.189  0.202E-07  0.728E-08  0.280E-08  0.280E-08  0.728E-08
   9.191  0.109E-09  0.337E-10  0.206E-10  0.206E-10  0.337E-10
   9.193  0.417E-06  0.129E-06  0.797E-07  0.797E-07  0.129E-06
   9.195  0.222E-03  0.685E-04  0.424E-04  0.424E-04  0.685E-04
   9.197  0.160E-01  0.493E-02  0.305E-02  0.305E-02  0.493E-02
   9.199  0.155E+00  0.480E-01  0.297E-01  0.297E-01  0.480E-01
   9.201  0.205E+00  0.633E-01  0.392E-01  0.392E-01  0.633E-01
   9.203  0.436E-01  0.137E-01  0.811E-02  0.811E-02  0.137E-01
   9.205  0.106E+00  0.359E-01  0.169E-01  0.169E-01  0.359E-01
   9.207  0.212E+00  0.721E-01  0.338E-01  0.338E-01  0.721E-01
   9.209  0.580E-01  0.197E-01  0.925E-02  0.925E-02  0.197E-01
   9.211  0.215E-02  0.730E-03  0.343E-03  0.343E-03  0.730E-03
   9.213  0.108E-04  0.366E-05  0.172E-05  0.172E-05  0.366E-05
   9.215  0.212E-07  0.621E-08  0.441E-08  0.441E-08  0.621E-08
   9.217  0.170E-04  0.454E-05  0.396E-05  0.396E-05  0.454E-05
   9.219  0.280E-02  0.749E-03  0.653E-03  0.653E-03  0.749E-03
   9.221  0.625E-01  0.167E-01  0.146E-01  0.146E-01  0.167E-01
   9.223  0.189E+00  0.504E-01  0.440E-01  0.440E-01  0.504E-01
   9.225  0.773E-01  0.206E-01  0.180E-01  0.180E-01  0.206E-01
   9.227  0.107E-01  0.311E-02  0.223E-02  0.223E-02  0.311E-02
   9.229  0.104E+00  0.319E-01  0.199E-01  0.199E-01  0.319E-01
   9.231  0.227E+00  0.698E-01  0.437E-01  0.437E-01  0.698E-01
   9.233  0.673E-01  0.207E-01  0.130E-01  0.130E-01  0.207E-01
   9.235  0.270E-02  0.832E-03  0.520E-03  0.520E-03  0.832E-03
   9.237  0.451E-04  0.158E-04  0.671E-05  0.671E-05  0.158E-04
   9.239  0.445E-02  0.167E-02  0.554E-03  0.554E-03  0.167E-02
   9.241  0.979E-01  0.375E-01  0.115E-01  0.115E-01  0.375E-01
   9.243  0.352E+00  0.138E+00  0.376E-01  0.376E-01  0.138E+00
   9.245  0.216E+00  0.874E-01  0.207E-01  0.207E-01  0.874E-01
   9.247  0.218E-01  0.898E-02  0.193E-02  0.193E-02  0.898E-02
   9.249  0.333E-03  0.138E-03  0.283E-04  0.283E-04  0.138E-03
   9.251  0.120E-05  0.464E-06  0.135E-06  0.135E-06  0.464E-06
   9.253  0.245E-03  0.840E-04  0.384E-04  0.384E-04  0.840E-04
   9.255  0.176E-01  0.601E-02  0.276E-02  0.276E-02  0.601E-02
   9.257  0.189E+00  0.643E-01  0.301E-01  0.301E-01  0.643E-01
   9.259  0.364E+00  0.122E+00  0.595E-01  0.595E-01  0.122E+00
   9.261  0.191E+00  0.623E-01  0.333E-01  0.333E-01  0.623E-01
   9.263  0.222E+00  0.682E-01  0.427E-01  0.427E-01  0.682E-01
   9.265  0.130E+00  0.399E-01  0.252E-01  0.252E-01  0.399E-01
   9.267  0.225E-01  0.641E-02  0.482E-02  0.482E-02  0.641E-02
   9.269  0.121E+00  0.322E-01  0.283E-01  0.283E-01  0.322E-01
   9.271  0.170E+00  0.452E-01  0.397E-01  0.397E-01  0.452E-01
   9.273  0.322E-01  0.858E-02  0.754E-02  0.754E-02  0.858E-02
   9.275  0.829E-03  0.221E-03  0.194E-03  0.194E-03  0.221E-03
   9.277  0.289E-05  0.768E-06  0.675E-06  0.675E-06  0.768E-06
   9.279  0.136E-08  0.362E-09  0.318E-09  0.318E-09  0.362E-09
   9.281  0.866E-13  0.231E-13  0.203E-13  0.203E-13  0.231E-13
   9.283  0.747E-18  0.199E-18  0.175E-18  0.175E-18  0.199E-18
   9.285  0.000E+00  0.000E+00  0.000E+00  0.000E+00  0.000E+00
   9.287  0.153E-14  0.467E-15  0.300E-15  0.300E-15  0.467E-15
   9.289  0.514E-10  0.157E-10  0.100E-10  0.100E-10  0.157E-10
   9.291  0.233E-06  0.710E-07  0.455E-07  0.455E-07  0.710E-07
   9.293  0.143E-03  0.436E-04  0.279E-04  0.279E-04  0.436E-04
   9.295  0.119E-01  0.362E-02  0.232E-02  0.232E-02  0.362E-02
   9.297  0.134E+00  0.407E-01  0.261E-01  0.261E-01  0.407E-01
   9.299  0.205E+00  0.625E-01  0.399E-01  0.399E-01  0.625E-01
   9.301  0.910E-01  0.314E-01  0.141E-01  0.141E-01  0.314E-01
   9.303  0.197E+00  0.746E-01  0.239E-01  0.239E-01  0.746E-01
   9.305  0.137E+00  0.509E-01  0.176E-01  0.176E-01  0.509E-01
   9.307  0.209E+00  0.726E-01  0.318E-01  0.318E-01  0.726E-01
   9.309  0.169E+00  0.584E-01  0.259E-01  0.259E-01  0.584E-01
   9.311  0.191E-01  0.661E-02  0.293E-02  0.293E-02  0.661E-02
   9.313  0.416E-03  0.134E-03  0.738E-04  0.738E-04  0.134E-03
   9.315  0.103E-01  0.273E-02  0.241E-02  0.241E-02  0.273E-02
   9.317  0.121E+00  0.331E-01  0.276E-01  0.276E-01  0.331E-01
   9.319  0.278E+00  0.889E-01  0.502E-01  0.502E-01  0.889E-01
   9.321  0.267E+00  0.104E+00  0.289E-01  0.289E-01  0.104E+00
   9.323  0.707E-01  0.290E-01  0.640E-02  0.640E-02  0.290E-01
   9.325  0.286E-02  0.118E-02  0.253E-03  0.253E-03  0.118E-02
   9.327  0.158E-04  0.651E-05  0.140E-05  0.140E-05  0.651E-05
   9.329  0.660E-05  0.200E-05  0.130E-05  0.130E-05  0.200E-05
   9.331  0.153E-02  0.464E-03  0.302E-03  0.302E-03  0.464E-03
   9.333  0.482E-01  0.146E-01  0.951E-02  0.951E-02  0.146E-01
   9.335  0.205E+00  0.622E-01  0.405E-01  0.405E-01  0.622E-01
   9.337  0.118E+00  0.359E-01  0.234E-01  0.234E-01  0.359E-01
   9.339  0.924E-02  0.280E-02  0.182E-02  0.182E-02  0.280E-02
   9.341  0.991E-04  0.300E-04  0.195E-04  0.195E-04  0.300E-04
   9.343  0.523E-03  0.174E-03  0.880E-04  0.880E-04  0.174E-03
   9.345  0.254E-01  0.843E-02  0.427E-02  0.427E-02  0.843E-02
   9.347  0.167E+00  0.554E-01  0.281E-01  0.281E-01  0.554E-01
   9.349  0.149E+00  0.496E-01  0.251E-01  0.251E-01  0.496E-01
   9.351  0.507E-01  0.174E-01  0.795E-02  0.795E-02  0.174E-01
   9.353  0.210E+00  0.733E-01  0.316E-01  0.316E-01  0.733E-01
   9.355  0.193E+00  0.680E-01  0.286E-01  0.286E-01  0.680E-01
   9.357  0.160E+00  0.614E-01  0.187E-01  0.187E-01  0.614E-01
   9.359  0.211E+00  0.817E-01  0.236E-01  0.236E-01  0.817E-01
   9.361  0.430E-01  0.167E-01  0.482E-02  0.482E-02  0.167E-01
   9.363  0.767E-02  0.218E-02  0.166E-02  0.166E-02  0.218E-02
   9.365  0.953E-01  0.252E-01  0.225E-01  0.225E-01  0.252E-01
   9.367  0.190E+00  0.501E-01  0.447E-01  0.447E-01  0.501E-01
   9.369  0.512E-01  0.135E-01  0.121E-01  0.121E-01  0.135E-01
   9.371  0.108E-01  0.320E-02  0.223E-02  0.223E-02  0.320E-02
   9.373  0.115E+00  0.348E-01  0.230E-01  0.230E-01  0.348E-01
   9.375  0.201E+00  0.604E-01  0.399E-01  0.399E-01  0.604E-01
   9.377  0.474E-01  0.143E-01  0.941E-02  0.941E-02  0.143E-01
   9.379  0.182E-01  0.721E-02  0.190E-02  0.190E-02  0.721E-02
   9.381  0.167E+00  0.677E-01  0.160E-01  0.160E-01  0.677E-01
   9.383  0.227E+00  0.917E-01  0.217E-01  0.217E-01  0.917E-01
   9.385  0.416E-01  0.168E-01  0.399E-02  0.399E-02  0.168E-01
   9.387  0.103E-02  0.417E-03  0.990E-04  0.990E-04  0.417E-03
   9.389  0.337E-03  0.119E-03  0.496E-04  0.496E-04  0.119E-03
   9.391  0.215E-01  0.758E-02  0.318E-02  0.318E-02  0.758E-02
   9.393  0.188E+00  0.663E-01  0.278E-01  0.278E-01  0.663E-01
   9.395  0.222E+00  0.784E-01  0.329E-01  0.329E-01  0.784E-01
   9.397  0.357E-01  0.126E-01  0.527E-02  0.527E-02  0.126E-01
   9.399  0.712E-02  0.278E-02  0.777E-03  0.777E-03  0.278E-02
   9.401  0.109E+00  0.432E-01  0.114E-01  0.114E-01  0.432E-01
   9.403  0.255E+00  0.101E+00  0.266E-01  0.266E-01  0.101E+00
   9.405  0.803E-01  0.318E-01  0.839E-02  0.839E-02  0.318E-01
   9.407  0.343E-02  0.136E-02  0.359E-03  0.359E-03  0.136E-02
   9.409  0.702E-03  0.188E-03  0.163E-03  0.163E-03  0.188E-03
   9.411  0.305E-01  0.807E-02  0.719E-02  0.719E-02  0.807E-02
   9.413  0.209E+00  0.564E-01  0.483E-01  0.483E-01  0.564E-01
   9.415  0.324E+00  0.918E-01  0.700E-01  0.700E-01  0.918E-01
   9.417  0.173E+00  0.522E-01  0.343E-01  0.343E-01  0.522E-01
   9.419  0.200E+00  0.672E-01  0.330E-01  0.330E-01  0.672E-01
   9.421  0.208E+00  0.714E-01  0.324E-01  0.324E-01  0.714E-01
   9.423  0.242E+00  0.935E-01  0.276E-01  0.276E-01  0.935E-01
   9.425  0.436E+00  0.164E+00  0.538E-01  0.538E-01  0.164E+00
   9.427  0.267E+00  0.962E-01  0.373E-01  0.373E-01  0.962E-01
   9.429  0.410E-01  0.148E-01  0.570E-02  0.570E-02  0.148E-01
   9.431  0.103E+00  0.414E-01  0.103E-01  0.103E-01  0.414E-01
   9.433  0.276E+00  0.111E+00  0.275E-01  0.275E-01  0.111E+00
   9.435  0.101E+00  0.403E-01  0.100E-01  0.100E-01  0.403E-01
   9.437  0.496E-02  0.199E-02  0.493E-03  0.493E-03  0.199E-02
   9.439  0.332E-04  0.133E-04  0.330E-05  0.330E-05  0.133E-04
   9.441  0.831E-04  0.306E-04  0.109E-04  0.109E-04  0.306E-04
   9.443  0.116E-01  0.430E-02  0.151E-02  0.151E-02  0.430E-02
   9.445  0.224E+00  0.834E-01  0.287E-01  0.287E-01  0.834E-01
   9.447  0.660E+00  0.249E+00  0.813E-01  0.813E-01  0.249E+00
   9.449  0.489E+00  0.191E+00  0.533E-01  0.533E-01  0.191E+00
   9.451  0.240E+00  0.915E-01  0.285E-01  0.285E-01  0.915E-01
   9.453  0.899E+00  0.318E+00  0.131E+00  0.131E+00  0.318E+00
   9.455  0.133E+01  0.451E+00  0.214E+00  0.214E+00  0.451E+00
   9.457  0.118E+01  0.376E+00  0.215E+00  0.215E+00  0.376E+00
   9.459  0.106E+01  0.346E+00  0.182E+00  0.182E+00  0.346E+00
   9.461  0.434E+00  0.141E+00  0.762E-01  0.762E-01  0.141E+00
   9.463  0.358E+00  0.114E+00  0.651E-01  0.651E-01  0.114E+00
   9.465  0.353E+00  0.121E+00  0.556E-01  0.556E-01  0.121E+00
   9.467  0.301E+00  0.100E+00  0.505E-01  0.505E-01  0.100E+00
   9.469  0.298E+00  0.938E-01  0.555E-01  0.555E-01  0.938E-01
   9.471  0.171E+00  0.531E-01  0.324E-01  0.324E-01  0.531E-01
   9.473  0.291E+00  0.899E-01  0.558E-01  0.558E-01  0.899E-01
   9.475  0.115E+00  0.355E-01  0.220E-01  0.220E-01  0.355E-01
   9.477  0.639E-02  0.197E-02  0.123E-02  0.123E-02  0.197E-02
   9.479  0.158E-01  0.474E-02  0.314E-02  0.314E-02  0.474E-02
   9.481  0.178E+00  0.534E-01  0.354E-01  0.354E-01  0.534E-01
   9.483  0.273E+00  0.820E-01  0.544E-01  0.544E-01  0.820E-01
   9.485  0.123E+00  0.365E-01  0.252E-01  0.252E-01  0.365E-01
   9.487  0.446E+00  0.129E+00  0.938E-01  0.938E-01  0.129E+00
   9.489  0.403E+00  0.116E+00  0.857E-01  0.857E-01  0.116E+00
   9.491  0.553E-01  0.158E-01  0.119E-01  0.119E-01  0.158E-01
   9.493  0.108E+00  0.309E-01  0.228E-01  0.228E-01  0.309E-01
   9.495  0.297E+00  0.853E-01  0.630E-01  0.630E-01  0.853E-01
   9.497  0.142E+00  0.405E-01  0.306E-01  0.306E-01  0.405E-01
   9.499  0.232E+00  0.638E-01  0.520E-01  0.520E-01  0.638E-01
   9.501  0.253E+00  0.703E-01  0.563E-01  0.563E-01  0.703E-01
   9.503  0.209E+00  0.611E-01  0.433E-01  0.433E-01  0.611E-01
   9.505  0.273E+00  0.826E-01  0.540E-01  0.540E-01  0.826E-01
   9.507  0.291E+00  0.898E-01  0.559E-01  0.559E-01  0.898E-01
   9.509  0.719E-01  0.222E-01  0.137E-01  0.137E-01  0.222E-01
   9.511  0.250E-02  0.772E-03  0.478E-03  0.478E-03  0.772E-03
   9.513  0.118E-04  0.364E-05  0.225E-05  0.225E-05  0.364E-05
   9.515  0.752E-08  0.232E-08  0.144E-08  0.144E-08  0.232E-08
   9.517  0.650E-12  0.201E-12  0.124E-12  0.124E-12  0.201E-12
   9.519  0.228E-12  0.704E-13  0.435E-13  0.435E-13  0.704E-13
   9.521  0.322E-08  0.995E-09  0.615E-09  0.615E-09  0.995E-09
   9.523  0.615E-05  0.190E-05  0.118E-05  0.118E-05  0.190E-05
   9.525  0.159E-02  0.492E-03  0.304E-03  0.304E-03  0.492E-03
   9.527  0.558E-01  0.172E-01  0.106E-01  0.106E-01  0.172E-01
   9.529  0.264E+00  0.817E-01  0.505E-01  0.505E-01  0.817E-01
   9.531  0.169E+00  0.524E-01  0.324E-01  0.324E-01  0.524E-01
   9.533  0.147E-01  0.455E-02  0.281E-02  0.281E-02  0.455E-02
   9.535  0.173E-03  0.534E-04  0.330E-04  0.330E-04  0.534E-04
   9.537  0.275E-06  0.849E-07  0.525E-07  0.525E-07  0.849E-07
   9.539  0.591E-10  0.183E-10  0.113E-10  0.113E-10  0.183E-10
   9.541  0.547E-10  0.160E-10  0.114E-10  0.114E-10  0.160E-10
   9.543  0.234E-06  0.685E-07  0.486E-07  0.486E-07  0.685E-07
   9.545  0.136E-03  0.397E-04  0.282E-04  0.282E-04  0.397E-04
   9.547  0.107E-01  0.311E-02  0.221E-02  0.221E-02  0.311E-02
   9.549  0.113E+00  0.331E-01  0.235E-01  0.235E-01  0.331E-01
   9.551  0.163E+00  0.476E-01  0.338E-01  0.338E-01  0.476E-01
   9.553  0.469E-01  0.140E-01  0.948E-02  0.948E-02  0.140E-01
   9.555  0.171E+00  0.530E-01  0.327E-01  0.327E-01  0.530E-01
   9.557  0.258E+00  0.799E-01  0.492E-01  0.492E-01  0.799E-01
   9.559  0.528E-01  0.163E-01  0.101E-01  0.101E-01  0.163E-01
   9.561  0.146E-02  0.453E-03  0.279E-03  0.279E-03  0.453E-03
   9.563  0.549E-05  0.170E-05  0.105E-05  0.105E-05  0.170E-05
   9.565  0.278E-08  0.862E-09  0.531E-09  0.531E-09  0.862E-09
   9.567  0.191E-12  0.592E-13  0.364E-13  0.364E-13  0.592E-13
   9.569  0.178E-17  0.550E-18  0.339E-18  0.339E-18  0.550E-18
   9.571  0.000E+00  0.000E+00  0.000E+00  0.000E+00  0.000E+00
   9.573  0.000E+00  0.000E+00  0.000E+00  0.000E+00  0.000E+00
   9.575  0.256E-15  0.795E-16  0.485E-16  0.485E-16  0.795E-16
   9.577  0.121E-10  0.375E-11  0.229E-11  0.229E-11  0.375E-11
   9.579  0.769E-07  0.239E-07  0.146E-07  0.146E-07  0.239E-07
   9.581  0.664E-04  0.206E-04  0.126E-04  0.126E-04  0.206E-04
   9.583  0.776E-02  0.241E-02  0.147E-02  0.147E-02  0.241E-02
   9.585  0.123E+00  0.381E-01  0.232E-01  0.232E-01  0.381E-01
   9.587  0.262E+00  0.815E-01  0.497E-01  0.497E-01  0.815E-01
   9.589  0.760E-01  0.236E-01  0.144E-01  0.144E-01  0.236E-01
   9.591  0.300E-02  0.930E-03  0.568E-03  0.568E-03  0.930E-03
   9.593  0.286E-02  0.841E-03  0.588E-03  0.588E-03  0.841E-03
   9.595  0.550E-01  0.162E-01  0.113E-01  0.113E-01  0.162E-01
   9.597  0.144E+00  0.423E-01  0.296E-01  0.296E-01  0.423E-01
   9.599  0.510E-01  0.150E-01  0.105E-01  0.105E-01  0.150E-01
   9.601  0.245E-02  0.719E-03  0.503E-03  0.503E-03  0.719E-03
   9.603  0.159E-04  0.467E-05  0.327E-05  0.327E-05  0.467E-05
   9.605  0.139E-07  0.410E-08  0.287E-08  0.287E-08  0.410E-08
   9.607  0.166E-11  0.488E-12  0.341E-12  0.341E-12  0.488E-12
   9.609  0.267E-16  0.784E-17  0.549E-17  0.549E-17  0.784E-17
   9.611  0.000E+00  0.000E+00  0.000E+00  0.000E+00  0.000E+00
   9.613  0.209E-17  0.635E-18  0.409E-18  0.409E-18  0.635E-18
   9.615  0.225E-12  0.685E-13  0.441E-13  0.441E-13  0.685E-13
   9.617  0.329E-08  0.999E-09  0.644E-09  0.644E-09  0.999E-09
   9.619  0.649E-05  0.197E-05  0.127E-05  0.127E-05  0.197E-05
   9.621  0.173E-02  0.527E-03  0.340E-03  0.340E-03  0.527E-03
   9.623  0.627E-01  0.191E-01  0.123E-01  0.123E-01  0.191E-01
   9.625  0.307E+00  0.934E-01  0.602E-01  0.602E-01  0.934E-01
   9.627  0.203E+00  0.618E-01  0.399E-01  0.399E-01  0.618E-01
   9.629  0.182E-01  0.554E-02  0.357E-02  0.357E-02  0.554E-02
   9.631  0.221E-03  0.673E-04  0.433E-04  0.433E-04  0.673E-04
   9.633  0.363E-06  0.110E-06  0.712E-07  0.712E-07  0.110E-06
   9.635  0.807E-10  0.245E-10  0.158E-10  0.158E-10  0.245E-10
   9.637  0.243E-14  0.738E-15  0.476E-15  0.476E-15  0.738E-15
   9.639  0.328E-17  0.940E-18  0.700E-18  0.700E-18  0.940E-18
   9.641  0.305E-12  0.873E-13  0.650E-13  0.650E-13  0.873E-13
   9.643  0.383E-08  0.110E-08  0.818E-09  0.818E-09  0.110E-08
   9.645  0.654E-05  0.187E-05  0.140E-05  0.140E-05  0.187E-05
   9.647  0.153E-02  0.438E-03  0.326E-03  0.326E-03  0.438E-03
   9.649  0.503E-01  0.145E-01  0.107E-01  0.107E-01  0.145E-01
   9.651  0.262E+00  0.761E-01  0.549E-01  0.549E-01  0.761E-01
   9.653  0.318E+00  0.937E-01  0.653E-01  0.653E-01  0.937E-01
   9.655  0.247E+00  0.723E-01  0.514E-01  0.514E-01  0.723E-01
   9.657  0.873E-01  0.254E-01  0.183E-01  0.183E-01  0.254E-01
   9.659  0.340E-01  0.104E-01  0.661E-02  0.661E-02  0.104E-01
   9.661  0.229E+00  0.704E-01  0.439E-01  0.439E-01  0.704E-01
   9.663  0.245E+00  0.754E-01  0.470E-01  0.470E-01  0.754E-01
   9.665  0.355E-01  0.109E-01  0.681E-02  0.681E-02  0.109E-01
   9.667  0.698E-03  0.215E-03  0.134E-03  0.134E-03  0.215E-03
   9.669  0.764E-03  0.215E-03  0.167E-03  0.167E-03  0.215E-03
   9.671  0.331E-01  0.930E-02  0.724E-02  0.724E-02  0.930E-02
   9.673  0.201E+00  0.567E-01  0.438E-01  0.438E-01  0.567E-01
   9.675  0.224E+00  0.651E-01  0.471E-01  0.471E-01  0.651E-01
   9.677  0.102E+00  0.311E-01  0.199E-01  0.199E-01  0.311E-01
   9.679  0.141E-01  0.436E-02  0.269E-02  0.269E-02  0.436E-02
   9.681  0.305E-03  0.943E-04  0.580E-04  0.580E-04  0.943E-04
   9.683  0.902E-06  0.279E-06  0.172E-06  0.172E-06  0.279E-06
   9.685  0.362E-09  0.112E-09  0.690E-10  0.690E-10  0.112E-09
   9.687  0.197E-13  0.610E-14  0.375E-14  0.375E-14  0.610E-14
   9.689  0.167E-16  0.461E-17  0.376E-17  0.376E-17  0.461E-17
   9.691  0.121E-11  0.334E-12  0.273E-12  0.273E-12  0.334E-12
   9.693  0.120E-07  0.330E-08  0.271E-08  0.271E-08  0.330E-08
   9.695  0.161E-04  0.443E-05  0.363E-05  0.363E-05  0.443E-05
   9.697  0.294E-02  0.809E-03  0.663E-03  0.663E-03  0.809E-03
   9.699  0.755E-01  0.208E-01  0.170E-01  0.170E-01  0.208E-01
   9.701  0.334E+00  0.935E-01  0.738E-01  0.738E-01  0.935E-01
   9.703  0.517E+00  0.151E+00  0.107E+00  0.107E+00  0.151E+00
   9.705  0.314E+00  0.949E-01  0.620E-01  0.620E-01  0.949E-01
   9.707  0.378E-01  0.116E-01  0.732E-02  0.732E-02  0.116E-01
   9.709  0.691E-03  0.213E-03  0.133E-03  0.133E-03  0.213E-03
   9.711  0.178E-05  0.549E-06  0.341E-06  0.341E-06  0.549E-06
   9.713  0.629E-09  0.194E-09  0.120E-09  0.120E-09  0.194E-09
   9.715  0.619E-12  0.187E-12  0.123E-12  0.123E-12  0.187E-12
   9.717  0.531E-08  0.160E-08  0.106E-08  0.106E-08  0.160E-08
   9.719  0.649E-05  0.195E-05  0.129E-05  0.129E-05  0.195E-05
   9.721  0.107E-02  0.323E-03  0.213E-03  0.213E-03  0.323E-03
   9.723  0.240E-01  0.723E-02  0.477E-02  0.477E-02  0.723E-02
   9.725  0.726E-01  0.219E-01  0.144E-01  0.144E-01  0.219E-01
   9.727  0.298E-01  0.897E-02  0.592E-02  0.592E-02  0.897E-02
   9.729  0.194E-02  0.576E-03  0.395E-03  0.395E-03  0.576E-03
   9.731  0.195E-01  0.527E-02  0.447E-02  0.447E-02  0.527E-02
   9.733  0.175E+00  0.474E-01  0.402E-01  0.402E-01  0.474E-01
   9.735  0.213E+00  0.577E-01  0.490E-01  0.490E-01  0.577E-01
   9.737  0.352E-01  0.952E-02  0.808E-02  0.808E-02  0.952E-02
   9.739  0.785E-03  0.212E-03  0.180E-03  0.180E-03  0.212E-03
   9.741  0.237E-05  0.642E-06  0.545E-06  0.545E-06  0.642E-06
   9.743  0.366E-05  0.113E-05  0.700E-06  0.700E-06  0.113E-05
   9.745  0.112E-02  0.346E-03  0.214E-03  0.214E-03  0.346E-03
   9.747  0.463E-01  0.143E-01  0.884E-02  0.884E-02  0.143E-01
   9.749  0.259E+00  0.801E-01  0.494E-01  0.494E-01  0.801E-01
   9.751  0.196E+00  0.607E-01  0.375E-01  0.375E-01  0.607E-01
   9.753  0.264E-01  0.798E-02  0.523E-02  0.523E-02  0.798E-02
   9.755  0.887E-01  0.248E-01  0.195E-01  0.195E-01  0.248E-01
   9.757  0.168E+00  0.469E-01  0.369E-01  0.369E-01  0.469E-01
   9.759  0.431E-01  0.120E-01  0.948E-02  0.948E-02  0.120E-01
   9.761  0.150E-02  0.418E-03  0.329E-03  0.329E-03  0.418E-03
   9.763  0.704E-05  0.197E-05  0.155E-05  0.155E-05  0.197E-05
   9.765  0.115E-04  0.307E-05  0.268E-05  0.268E-05  0.307E-05
   9.767  0.237E-02  0.633E-03  0.553E-03  0.553E-03  0.633E-03
   9.769  0.663E-01  0.177E-01  0.155E-01  0.155E-01  0.177E-01
   9.771  0.251E+00  0.670E-01  0.585E-01  0.585E-01  0.670E-01
   9.773  0.128E+00  0.343E-01  0.299E-01  0.299E-01  0.343E-01
   9.775  0.985E-02  0.273E-02  0.219E-02  0.219E-02  0.273E-02
   9.777  0.281E-01  0.105E-01  0.358E-02  0.358E-02  0.105E-01
   9.779  0.112E+00  0.418E-01  0.142E-01  0.142E-01  0.418E-01
   9.781  0.607E-01  0.226E-01  0.771E-02  0.771E-02  0.226E-01
   9.783  0.445E-02  0.166E-02  0.565E-03  0.565E-03  0.166E-02
   9.785  0.441E-04  0.165E-04  0.561E-05  0.561E-05  0.165E-04
   9.787  0.431E-05  0.157E-05  0.583E-06  0.583E-06  0.157E-05
   9.789  0.108E-02  0.393E-03  0.149E-03  0.149E-03  0.393E-03
   9.791  0.385E-01  0.138E-01  0.544E-02  0.544E-02  0.138E-01
   9.793  0.195E+00  0.684E-01  0.289E-01  0.289E-01  0.684E-01
   9.795  0.154E+00  0.520E-01  0.250E-01  0.250E-01  0.520E-01
   9.797  0.152E+00  0.472E-01  0.287E-01  0.287E-01  0.472E-01
   9.799  0.289E+00  0.896E-01  0.551E-01  0.551E-01  0.896E-01
   9.801  0.838E-01  0.259E-01  0.160E-01  0.160E-01  0.259E-01
   9.803  0.435E-02  0.141E-02  0.763E-03  0.763E-03  0.141E-02
   9.805  0.226E-01  0.841E-02  0.291E-02  0.291E-02  0.841E-02
   9.807  0.659E-01  0.244E-01  0.858E-02  0.858E-02  0.244E-01
   9.809  0.781E-01  0.236E-01  0.155E-01  0.155E-01  0.236E-01
   9.811  0.351E+00  0.944E-01  0.810E-01  0.810E-01  0.944E-01
   9.813  0.312E+00  0.838E-01  0.722E-01  0.722E-01  0.838E-01
   9.815  0.377E-01  0.101E-01  0.873E-02  0.873E-02  0.101E-01
   9.817  0.618E-03  0.166E-03  0.143E-03  0.143E-03  0.166E-03
   9.819  0.264E-04  0.103E-04  0.287E-05  0.287E-05  0.103E-04
   9.821  0.275E-02  0.110E-02  0.281E-03  0.281E-03  0.110E-02
   9.823  0.410E-01  0.163E-01  0.417E-02  0.417E-02  0.163E-01
   9.825  0.826E-01  0.329E-01  0.843E-02  0.843E-02  0.329E-01
   9.827  0.363E-01  0.139E-01  0.423E-02  0.423E-02  0.139E-01
   9.829  0.145E+00  0.524E-01  0.201E-01  0.201E-01  0.524E-01
   9.831  0.270E+00  0.100E+00  0.349E-01  0.349E-01  0.100E+00
   9.833  0.195E+00  0.760E-01  0.215E-01  0.215E-01  0.760E-01
   9.835  0.442E-01  0.174E-01  0.464E-02  0.464E-02  0.174E-01
   9.837  0.160E-02  0.632E-03  0.169E-03  0.169E-03  0.632E-03
   9.839  0.807E-05  0.318E-05  0.857E-06  0.857E-06  0.318E-05
   9.841  0.557E-08  0.219E-08  0.597E-09  0.597E-09  0.219E-08
   9.843  0.418E-07  0.130E-07  0.791E-08  0.791E-08  0.130E-07
   9.845  0.438E-04  0.137E-04  0.824E-05  0.824E-05  0.137E-04
   9.847  0.633E-02  0.199E-02  0.117E-02  0.117E-02  0.199E-02
   9.849  0.129E+00  0.415E-01  0.231E-01  0.231E-01  0.415E-01
   9.851  0.392E+00  0.131E+00  0.652E-01  0.652E-01  0.131E+00
   9.853  0.243E+00  0.810E-01  0.407E-01  0.407E-01  0.810E-01
   9.855  0.266E+00  0.711E-01  0.616E-01  0.616E-01  0.711E-01
   9.857  0.152E+00  0.397E-01  0.361E-01  0.361E-01  0.397E-01
   9.859  0.139E-01  0.376E-02  0.317E-02  0.317E-02  0.376E-02
   9.861  0.195E-01  0.684E-02  0.292E-02  0.292E-02  0.684E-02
   9.863  0.345E-01  0.121E-01  0.514E-02  0.514E-02  0.121E-01
   9.865  0.167E-01  0.519E-02  0.315E-02  0.315E-02  0.519E-02
   9.867  0.927E-01  0.252E-01  0.211E-01  0.211E-01  0.252E-01
   9.869  0.137E+00  0.373E-01  0.312E-01  0.312E-01  0.373E-01
   9.871  0.277E-01  0.755E-02  0.629E-02  0.629E-02  0.755E-02
   9.873  0.174E-01  0.610E-02  0.262E-02  0.262E-02  0.610E-02
   9.875  0.165E+00  0.582E-01  0.241E-01  0.241E-01  0.582E-01
   9.877  0.255E+00  0.917E-01  0.357E-01  0.357E-01  0.917E-01
   9.879  0.209E+00  0.793E-01  0.253E-01  0.253E-01  0.793E-01
   9.881  0.132E+00  0.467E-01  0.194E-01  0.194E-01  0.467E-01
   9.883  0.229E-01  0.701E-02  0.445E-02  0.445E-02  0.701E-02
   9.885  0.891E-03  0.247E-03  0.199E-03  0.199E-03  0.247E-03
   9.887  0.586E-05  0.157E-05  0.136E-05  0.136E-05  0.157E-05
   9.889  0.558E-08  0.148E-08  0.131E-08  0.131E-08  0.148E-08
   9.891  0.781E-12  0.206E-12  0.184E-12  0.184E-12  0.206E-12
   9.893  0.911E-09  0.236E-09  0.219E-09  0.219E-09  0.236E-09
   9.895  0.230E-05  0.596E-06  0.553E-06  0.553E-06  0.596E-06
   9.897  0.785E-03  0.204E-03  0.189E-03  0.189E-03  0.204E-03
   9.899  0.362E-01  0.940E-02  0.872E-02  0.872E-02  0.940E-02
   9.901  0.227E+00  0.590E-01  0.546E-01  0.546E-01  0.590E-01
   9.903  0.222E+00  0.590E-01  0.518E-01  0.518E-01  0.590E-01
   9.905  0.246E+00  0.753E-01  0.479E-01  0.479E-01  0.753E-01
   9.907  0.228E+00  0.708E-01  0.433E-01  0.433E-01  0.708E-01
   9.909  0.330E-01  0.104E-01  0.610E-02  0.610E-02  0.104E-01
   9.911  0.426E-01  0.172E-01  0.407E-02  0.407E-02  0.172E-01
   9.913  0.137E+00  0.555E-01  0.129E-01  0.129E-01  0.555E-01
   9.915  0.642E-01  0.256E-01  0.655E-02  0.655E-02  0.256E-01
   9.917  0.211E-01  0.639E-02  0.416E-02  0.416E-02  0.639E-02
   9.919  0.103E-01  0.290E-02  0.223E-02  0.223E-02  0.290E-02
   9.921  0.690E-02  0.231E-02  0.114E-02  0.114E-02  0.231E-02
   9.923  0.126E+00  0.423E-01  0.207E-01  0.207E-01  0.423E-01
   9.925  0.388E+00  0.126E+00  0.683E-01  0.683E-01  0.126E+00
   9.927  0.188E+00  0.579E-01  0.362E-01  0.362E-01  0.579E-01
   9.929  0.148E-01  0.432E-02  0.309E-02  0.309E-02  0.432E-02
   9.931  0.184E-03  0.515E-04  0.405E-04  0.405E-04  0.515E-04
   9.933  0.341E-06  0.933E-07  0.774E-07  0.774E-07  0.933E-07
   9.935  0.901E-10  0.243E-10  0.207E-10  0.207E-10  0.243E-10
   9.937  0.330E-14  0.886E-15  0.763E-15  0.763E-15  0.886E-15
   9.939  0.376E-15  0.969E-16  0.913E-16  0.913E-16  0.969E-16
   9.941  0.167E-10  0.429E-11  0.404E-11  0.404E-11  0.429E-11
   9.943  0.100E-06  0.257E-07  0.242E-07  0.242E-07  0.257E-07
   9.945  0.813E-04  0.210E-04  0.197E-04  0.197E-04  0.210E-04
   9.947  0.903E-02  0.234E-02  0.217E-02  0.217E-02  0.234E-02
   9.949  0.142E+00  0.379E-01  0.330E-01  0.330E-01  0.379E-01
   9.951  0.360E+00  0.106E+00  0.734E-01  0.734E-01  0.106E+00
   9.953  0.199E+00  0.699E-01  0.296E-01  0.296E-01  0.699E-01
   9.955  0.257E-01  0.100E-01  0.284E-02  0.284E-02  0.100E-01
   9.957  0.585E-03  0.235E-03  0.580E-04  0.580E-04  0.235E-03
   9.959  0.117E-02  0.362E-03  0.220E-03  0.220E-03  0.362E-03
   9.961  0.469E-01  0.146E-01  0.888E-02  0.888E-02  0.146E-01
   9.963  0.256E+00  0.795E-01  0.485E-01  0.485E-01  0.795E-01
   9.965  0.189E+00  0.587E-01  0.358E-01  0.358E-01  0.587E-01
   9.967  0.189E-01  0.587E-02  0.358E-02  0.358E-02  0.587E-02
   9.969  0.260E-02  0.880E-03  0.419E-03  0.419E-03  0.880E-03
   9.971  0.704E-01  0.241E-01  0.111E-01  0.111E-01  0.241E-01
   9.973  0.286E+00  0.978E-01  0.453E-01  0.453E-01  0.978E-01
   9.975  0.158E+00  0.539E-01  0.249E-01  0.249E-01  0.539E-01
   9.977  0.148E-01  0.499E-02  0.243E-02  0.243E-02  0.499E-02
   9.979  0.260E-01  0.788E-02  0.515E-02  0.515E-02  0.788E-02
   9.981  0.794E-01  0.215E-01  0.182E-01  0.182E-01  0.215E-01
   9.983  0.124E+00  0.324E-01  0.295E-01  0.295E-01  0.324E-01
   9.985  0.395E-01  0.103E-01  0.939E-02  0.939E-02  0.103E-01
   9.987  0.184E-02  0.483E-03  0.438E-03  0.438E-03  0.483E-03
   9.989  0.139E-04  0.365E-05  0.328E-05  0.328E-05  0.365E-05
   9.991  0.465E-03  0.150E-03  0.826E-04  0.826E-04  0.150E-03
   9.993  0.189E-01  0.691E-02  0.252E-02  0.252E-02  0.691E-02
   9.995  0.123E+00  0.479E-01  0.136E-01  0.136E-01  0.479E-01
   9.997  0.118E+00  0.469E-01  0.121E-01  0.121E-01  0.469E-01
   9.999  0.483E-01  0.146E-01  0.951E-02  0.951E-02  0.146E-01
  10.001  0.222E+00  0.568E-01  0.543E-01  0.543E-01  0.568E-01
  10.003  0.204E+00  0.522E-01  0.499E-01  0.499E-01  0.522E-01
  10.005  0.254E-01  0.650E-02  0.621E-02  0.621E-02  0.650E-02
  10.007  0.428E-03  0.109E-03  0.105E-03  0.105E-03  0.109E-03
  10.009  0.977E-06  0.250E-06  0.239E-06  0.239E-06  0.250E-06
  10.011  0.327E-09  0.855E-10  0.778E-10  0.778E-10  0.855E-10
  10.013  0.143E-06  0.483E-07  0.234E-07  0.234E-07  0.483E-07
  10.015  0.110E-03  0.372E-04  0.180E-04  0.180E-04  0.372E-04
  10.017  0.115E-01  0.387E-02  0.187E-02  0.187E-02  0.387E-02
  10.019  0.163E+00  0.549E-01  0.266E-01  0.266E-01  0.549E-01
  10.021  0.357E+00  0.119E+00  0.595E-01  0.595E-01  0.119E+00
  10.023  0.338E+00  0.107E+00  0.617E-01  0.617E-01  0.107E+00
  10.025  0.186E+00  0.579E-01  0.350E-01  0.350E-01  0.579E-01
  10.027  0.176E-01  0.547E-02  0.332E-02  0.332E-02  0.547E-02
  10.029  0.229E-03  0.712E-04  0.433E-04  0.433E-04  0.712E-04
  10.031  0.215E-03  0.549E-04  0.523E-04  0.523E-04  0.549E-04
  10.033  0.904E-02  0.231E-02  0.221E-02  0.221E-02  0.231E-02
  10.035  0.516E-01  0.132E-01  0.126E-01  0.126E-01  0.132E-01
  10.037  0.399E-01  0.102E-01  0.975E-02  0.975E-02  0.102E-01
  10.039  0.927E-02  0.237E-02  0.226E-02  0.226E-02  0.237E-02
  10.041  0.803E-01  0.228E-01  0.173E-01  0.173E-01  0.228E-01
  10.043  0.280E+00  0.895E-01  0.505E-01  0.505E-01  0.895E-01
  10.045  0.218E+00  0.699E-01  0.392E-01  0.392E-01  0.699E-01
  10.047  0.195E+00  0.363E-01  0.612E-01  0.612E-01  0.363E-01
  10.049  0.228E+00  0.382E-01  0.759E-01  0.759E-01  0.382E-01
  10.051  0.118E+00  0.195E-01  0.393E-01  0.393E-01  0.195E-01
  10.053  0.257E+00  0.504E-01  0.781E-01  0.781E-01  0.504E-01
  10.055  0.457E+00  0.103E+00  0.126E+00  0.126E+00  0.103E+00
  10.057  0.180E+00  0.424E-01  0.474E-01  0.474E-01  0.424E-01
  10.059  0.389E-01  0.689E-02  0.125E-01  0.125E-01  0.689E-02
  10.061  0.313E-01  0.589E-02  0.976E-02  0.976E-02  0.589E-02
  10.063  0.188E+00  0.437E-01  0.502E-01  0.502E-01  0.437E-01
  10.065  0.460E+00  0.122E+00  0.108E+00  0.108E+00  0.122E+00
  10.067  0.382E+00  0.120E+00  0.710E-01  0.710E-01  0.120E+00
  10.069  0.793E-01  0.262E-01  0.135E-01  0.135E-01  0.262E-01
  10.071  0.254E-02  0.846E-03  0.426E-03  0.426E-03  0.846E-03
  10.073  0.735E-04  0.150E-04  0.218E-04  0.218E-04  0.150E-04
  10.075  0.659E-02  0.119E-02  0.211E-02  0.211E-02  0.119E-02
  10.077  0.945E-01  0.170E-01  0.302E-01  0.302E-01  0.170E-01
  10.079  0.183E+00  0.330E-01  0.586E-01  0.586E-01  0.330E-01
  10.081  0.499E-01  0.923E-02  0.157E-01  0.157E-01  0.923E-02
  10.083  0.615E-01  0.189E-01  0.118E-01  0.118E-01  0.189E-01
  10.085  0.269E+00  0.838E-01  0.506E-01  0.506E-01  0.838E-01
  10.087  0.164E+00  0.510E-01  0.308E-01  0.308E-01  0.510E-01
  10.089  0.135E-01  0.420E-02  0.254E-02  0.254E-02  0.420E-02
  10.091  0.121E-02  0.436E-03  0.169E-03  0.169E-03  0.436E-03
  10.093  0.428E-01  0.145E-01  0.694E-02  0.694E-02  0.145E-01
  10.095  0.267E+00  0.793E-01  0.541E-01  0.541E-01  0.793E-01
  10.097  0.263E+00  0.671E-01  0.645E-01  0.645E-01  0.671E-01
  10.099  0.414E-01  0.929E-02  0.114E-01  0.114E-01  0.929E-02
  10.101  0.318E-01  0.990E-02  0.602E-02  0.602E-02  0.990E-02
  10.103  0.131E+00  0.413E-01  0.244E-01  0.244E-01  0.413E-01
  10.105  0.757E-01  0.238E-01  0.141E-01  0.141E-01  0.238E-01
  10.107  0.153E-01  0.436E-02  0.327E-02  0.327E-02  0.436E-02
  10.109  0.191E+00  0.533E-01  0.420E-01  0.420E-01  0.533E-01
  10.111  0.595E+00  0.175E+00  0.123E+00  0.123E+00  0.175E+00
  10.113  0.291E+00  0.889E-01  0.564E-01  0.564E-01  0.889E-01
  10.115  0.790E-01  0.173E-01  0.222E-01  0.222E-01  0.173E-01
  10.117  0.199E+00  0.366E-01  0.631E-01  0.631E-01  0.366E-01
  10.119  0.928E-01  0.170E-01  0.294E-01  0.294E-01  0.170E-01
  10.121  0.585E-02  0.107E-02  0.185E-02  0.185E-02  0.107E-02
  10.123  0.499E-04  0.917E-05  0.158E-04  0.158E-04  0.917E-05
  10.125  0.577E-07  0.106E-07  0.183E-07  0.183E-07  0.106E-07
  10.127  0.901E-11  0.165E-11  0.285E-11  0.285E-11  0.165E-11
  10.129  0.149E-11  0.186E-12  0.558E-12  0.558E-12  0.186E-12
  10.131  0.456E-08  0.571E-09  0.171E-08  0.171E-08  0.571E-09
  10.133  0.191E-05  0.239E-06  0.714E-06  0.714E-06  0.239E-06
  10.135  0.123E-03  0.163E-04  0.450E-04  0.450E-04  0.163E-04
  10.137  0.359E-02  0.614E-03  0.118E-02  0.118E-02  0.614E-03
  10.139  0.657E-01  0.121E-01  0.208E-01  0.208E-01  0.121E-01
  10.141  0.205E+00  0.378E-01  0.648E-01  0.648E-01  0.378E-01
  10.143  0.878E-01  0.162E-01  0.277E-01  0.277E-01  0.162E-01
  10.145  0.132E-01  0.347E-02  0.312E-02  0.312E-02  0.347E-02
  10.147  0.133E+00  0.420E-01  0.247E-01  0.247E-01  0.420E-01
  10.149  0.348E+00  0.114E+00  0.596E-01  0.596E-01  0.114E+00
  10.151  0.233E+00  0.859E-01  0.309E-01  0.309E-01  0.859E-01
  10.153  0.851E-01  0.310E-01  0.115E-01  0.115E-01  0.310E-01
  10.155  0.300E+00  0.983E-01  0.516E-01  0.516E-01  0.983E-01
  10.157  0.419E+00  0.139E+00  0.710E-01  0.710E-01  0.139E+00
  10.159  0.136E+00  0.455E-01  0.222E-01  0.222E-01  0.455E-01
  10.161  0.987E-02  0.335E-02  0.159E-02  0.159E-02  0.335E-02
  10.163  0.293E-02  0.588E-03  0.879E-03  0.879E-03  0.588E-03
  10.165  0.109E+00  0.216E-01  0.329E-01  0.329E-01  0.216E-01
  10.167  0.681E+00  0.137E+00  0.204E+00  0.204E+00  0.137E+00
  10.169  0.690E+00  0.139E+00  0.205E+00  0.205E+00  0.139E+00
  10.171  0.308E+00  0.488E-01  0.105E+00  0.105E+00  0.488E-01
  10.173  0.128E+01  0.178E+00  0.463E+00  0.463E+00  0.178E+00
  10.175  0.140E+01  0.208E+00  0.490E+00  0.490E+00  0.208E+00
  10.177  0.692E+00  0.118E+00  0.228E+00  0.228E+00  0.118E+00
  10.179  0.577E+00  0.110E+00  0.179E+00  0.179E+00  0.110E+00
  10.181  0.704E+00  0.147E+00  0.205E+00  0.205E+00  0.147E+00
  10.183  0.605E+00  0.151E+00  0.152E+00  0.152E+00  0.151E+00
  10.185  0.104E+01  0.256E+00  0.262E+00  0.262E+00  0.256E+00
  10.187  0.177E+01  0.465E+00  0.422E+00  0.422E+00  0.465E+00
  10.189  0.115E+01  0.311E+00  0.264E+00  0.264E+00  0.311E+00
  10.191  0.586E+00  0.136E+00  0.157E+00  0.157E+00  0.136E+00
  10.193  0.757E+00  0.182E+00  0.197E+00  0.197E+00  0.182E+00
  10.195  0.829E+00  0.219E+00  0.196E+00  0.196E+00  0.219E+00
  10.197  0.935E+00  0.232E+00  0.236E+00  0.236E+00  0.232E+00
  10.199  0.990E+00  0.236E+00  0.260E+00  0.260E+00  0.236E+00
  10.201  0.914E+00  0.225E+00  0.233E+00  0.233E+00  0.225E+00
  10.203  0.221E+00  0.536E-01  0.566E-01  0.566E-01  0.536E-01
  10.205  0.746E-01  0.176E-01  0.197E-01  0.197E-01  0.176E-01
  10.207  0.405E+00  0.104E+00  0.988E-01  0.988E-01  0.104E+00
  10.209  0.810E+00  0.237E+00  0.168E+00  0.168E+00  0.237E+00
  10.211  0.729E+00  0.216E+00  0.149E+00  0.149E+00  0.216E+00
  10.213  0.720E+00  0.208E+00  0.152E+00  0.152E+00  0.208E+00
  10.215  0.678E+00  0.172E+00  0.166E+00  0.166E+00  0.172E+00
  10.217  0.428E+00  0.979E-01  0.116E+00  0.116E+00  0.979E-01
  10.219  0.448E+00  0.100E+00  0.124E+00  0.124E+00  0.100E+00
  10.221  0.477E+00  0.106E+00  0.133E+00  0.133E+00  0.106E+00
  10.223  0.423E+00  0.107E+00  0.104E+00  0.104E+00  0.107E+00
  10.225  0.303E+00  0.639E-01  0.876E-01  0.876E-01  0.639E-01
  10.227  0.663E+00  0.133E+00  0.199E+00  0.199E+00  0.133E+00
  10.229  0.888E+00  0.194E+00  0.250E+00  0.250E+00  0.194E+00
  10.231  0.104E+01  0.247E+00  0.276E+00  0.276E+00  0.247E+00
  10.233  0.663E+00  0.165E+00  0.166E+00  0.166E+00  0.165E+00
  10.235  0.974E-01  0.249E-01  0.239E-01  0.239E-01  0.249E-01
  10.237  0.225E-02  0.582E-03  0.544E-03  0.544E-03  0.582E-03
  10.239  0.108E-01  0.256E-02  0.286E-02  0.286E-02  0.256E-02
  10.241  0.264E+00  0.629E-01  0.689E-01  0.689E-01  0.629E-01
  10.243  0.993E+00  0.247E+00  0.250E+00  0.250E+00  0.247E+00
  10.245  0.897E+00  0.252E+00  0.196E+00  0.196E+00  0.252E+00
  10.247  0.331E+00  0.102E+00  0.632E-01  0.632E-01  0.102E+00
  10.249  0.540E-01  0.145E-01  0.125E-01  0.125E-01  0.145E-01
  10.251  0.207E+00  0.401E-01  0.634E-01  0.634E-01  0.401E-01
  10.253  0.298E+00  0.579E-01  0.910E-01  0.910E-01  0.579E-01
  10.255  0.239E+00  0.523E-01  0.672E-01  0.672E-01  0.523E-01
  10.257  0.539E+00  0.123E+00  0.147E+00  0.147E+00  0.123E+00
  10.259  0.360E+00  0.792E-01  0.101E+00  0.101E+00  0.792E-01
  10.261  0.489E+00  0.104E+00  0.140E+00  0.140E+00  0.104E+00
  10.263  0.626E+00  0.145E+00  0.168E+00  0.168E+00  0.145E+00
  10.265  0.205E+00  0.453E-01  0.572E-01  0.572E-01  0.453E-01
  10.267  0.334E-01  0.766E-02  0.904E-02  0.904E-02  0.766E-02
  10.269  0.277E+00  0.727E-01  0.656E-01  0.656E-01  0.727E-01
  10.271  0.732E+00  0.205E+00  0.161E+00  0.161E+00  0.205E+00
  10.273  0.810E+00  0.214E+00  0.191E+00  0.191E+00  0.214E+00
  10.275  0.450E+00  0.115E+00  0.110E+00  0.110E+00  0.115E+00
  10.277  0.396E+00  0.107E+00  0.912E-01  0.912E-01  0.107E+00
  10.279  0.350E+00  0.746E-01  0.100E+00  0.100E+00  0.746E-01
  10.281  0.750E-01  0.126E-01  0.249E-01  0.249E-01  0.126E-01
  10.283  0.491E-02  0.883E-03  0.157E-02  0.157E-02  0.883E-03
  10.285  0.756E-01  0.169E-01  0.210E-01  0.210E-01  0.169E-01
  10.287  0.446E+00  0.103E+00  0.120E+00  0.120E+00  0.103E+00
  10.289  0.714E+00  0.183E+00  0.174E+00  0.174E+00  0.183E+00
  10.291  0.743E+00  0.204E+00  0.167E+00  0.167E+00  0.204E+00
  10.293  0.196E+00  0.537E-01  0.443E-01  0.443E-01  0.537E-01
  10.295  0.342E-01  0.951E-02  0.758E-02  0.758E-02  0.951E-02
  10.297  0.277E+00  0.728E-01  0.656E-01  0.656E-01  0.728E-01
  10.299  0.824E+00  0.200E+00  0.212E+00  0.212E+00  0.200E+00
  10.301  0.106E+01  0.260E+00  0.272E+00  0.272E+00  0.260E+00
  10.303  0.392E+00  0.979E-01  0.979E-01  0.979E-01  0.979E-01
  10.305  0.316E-01  0.767E-02  0.816E-02  0.816E-02  0.767E-02
  10.307  0.164E+00  0.342E-01  0.478E-01  0.478E-01  0.342E-01
  10.309  0.567E+00  0.114E+00  0.170E+00  0.170E+00  0.114E+00
  10.311  0.281E+00  0.542E-01  0.862E-01  0.862E-01  0.542E-01
  10.313  0.199E-01  0.369E-02  0.627E-02  0.627E-02  0.369E-02
  10.315  0.201E-03  0.360E-04  0.647E-04  0.647E-04  0.360E-04
  10.317  0.103E-04  0.199E-05  0.316E-05  0.316E-05  0.199E-05
  10.319  0.212E-02  0.410E-03  0.649E-03  0.649E-03  0.410E-03
  10.321  0.606E-01  0.117E-01  0.186E-01  0.186E-01  0.117E-01
  10.323  0.238E+00  0.462E-01  0.728E-01  0.728E-01  0.462E-01
  10.325  0.223E+00  0.468E-01  0.645E-01  0.645E-01  0.468E-01
  10.327  0.528E+00  0.121E+00  0.143E+00  0.143E+00  0.121E+00
  10.329  0.455E+00  0.104E+00  0.123E+00  0.123E+00  0.104E+00
  10.331  0.667E-01  0.153E-01  0.180E-01  0.180E-01  0.153E-01
  10.333  0.380E-01  0.111E-01  0.789E-02  0.789E-02  0.111E-01
  10.335  0.503E+00  0.148E+00  0.103E+00  0.103E+00  0.148E+00
  10.337  0.105E+01  0.300E+00  0.224E+00  0.224E+00  0.300E+00
  10.339  0.626E+00  0.153E+00  0.160E+00  0.160E+00  0.153E+00
  10.341  0.548E+00  0.133E+00  0.141E+00  0.141E+00  0.133E+00
  10.343  0.193E+00  0.499E-01  0.466E-01  0.466E-01  0.499E-01
  10.345  0.458E-01  0.119E-01  0.110E-01  0.110E-01  0.119E-01
  10.347  0.390E+00  0.994E-01  0.958E-01  0.958E-01  0.994E-01
  10.349  0.715E+00  0.179E+00  0.178E+00  0.178E+00  0.179E+00
  10.351  0.415E+00  0.102E+00  0.105E+00  0.105E+00  0.102E+00
  10.353  0.825E-01  0.202E-01  0.211E-01  0.211E-01  0.202E-01
  10.355  0.291E-01  0.670E-02  0.783E-02  0.783E-02  0.670E-02
  10.357  0.228E+00  0.523E-01  0.618E-01  0.618E-01  0.523E-01
  10.359  0.287E+00  0.666E-01  0.769E-01  0.769E-01  0.666E-01
  10.361  0.218E+00  0.579E-01  0.512E-01  0.512E-01  0.579E-01
  10.363  0.318E+00  0.809E-01  0.779E-01  0.779E-01  0.809E-01
  10.365  0.475E+00  0.994E-01  0.138E+00  0.138E+00  0.994E-01
  10.367  0.349E+00  0.709E-01  0.103E+00  0.103E+00  0.709E-01
  10.369  0.364E+00  0.820E-01  0.998E-01  0.998E-01  0.820E-01
  10.371  0.249E+00  0.581E-01  0.664E-01  0.664E-01  0.581E-01
  10.373  0.139E+00  0.360E-01  0.336E-01  0.336E-01  0.360E-01
  10.375  0.240E+00  0.579E-01  0.622E-01  0.622E-01  0.579E-01
  10.377  0.346E+00  0.786E-01  0.942E-01  0.942E-01  0.786E-01
  10.379  0.379E+00  0.787E-01  0.111E+00  0.111E+00  0.787E-01
  10.381  0.202E+00  0.457E-01  0.552E-01  0.552E-01  0.457E-01
  10.383  0.339E+00  0.106E+00  0.641E-01  0.641E-01  0.106E+00
  10.385  0.265E+00  0.833E-01  0.490E-01  0.490E-01  0.833E-01
  10.387  0.403E-01  0.117E-01  0.848E-02  0.848E-02  0.117E-01
  10.389  0.214E+00  0.486E-01  0.584E-01  0.584E-01  0.486E-01
  10.391  0.616E+00  0.140E+00  0.168E+00  0.168E+00  0.140E+00
  10.393  0.285E+00  0.649E-01  0.778E-01  0.778E-01  0.649E-01
  10.395  0.208E-01  0.473E-02  0.567E-02  0.567E-02  0.473E-02
  10.397  0.232E-03  0.534E-04  0.629E-04  0.629E-04  0.534E-04
  10.399  0.161E-02  0.507E-03  0.299E-03  0.299E-03  0.507E-03
  10.401  0.729E-01  0.229E-01  0.136E-01  0.136E-01  0.229E-01
  10.403  0.544E+00  0.169E+00  0.103E+00  0.103E+00  0.169E+00
  10.405  0.786E+00  0.236E+00  0.156E+00  0.156E+00  0.236E+00
  10.407  0.430E+00  0.112E+00  0.103E+00  0.103E+00  0.112E+00
  10.409  0.344E+00  0.725E-01  0.993E-01  0.993E-01  0.725E-01
  10.411  0.369E+00  0.753E-01  0.109E+00  0.109E+00  0.753E-01
  10.413  0.494E+00  0.113E+00  0.134E+00  0.134E+00  0.113E+00
  10.415  0.337E+00  0.808E-01  0.879E-01  0.879E-01  0.808E-01
  10.417  0.138E+00  0.328E-01  0.361E-01  0.361E-01  0.328E-01
  10.419  0.255E+00  0.586E-01  0.688E-01  0.688E-01  0.586E-01
  10.421  0.261E+00  0.525E-01  0.778E-01  0.778E-01  0.525E-01
  10.423  0.168E+00  0.312E-01  0.529E-01  0.529E-01  0.312E-01
  10.425  0.936E-01  0.196E-01  0.272E-01  0.272E-01  0.196E-01
  10.427  0.440E+00  0.907E-01  0.129E+00  0.129E+00  0.907E-01
  10.429  0.585E+00  0.132E+00  0.161E+00  0.161E+00  0.132E+00
  10.431  0.832E+00  0.260E+00  0.156E+00  0.156E+00  0.260E+00
  10.433  0.991E+00  0.302E+00  0.194E+00  0.194E+00  0.302E+00
  10.435  0.805E+00  0.244E+00  0.159E+00  0.159E+00  0.244E+00
  10.437  0.370E+00  0.108E+00  0.765E-01  0.765E-01  0.108E+00
  10.439  0.842E+00  0.138E+00  0.283E+00  0.283E+00  0.138E+00
  10.441  0.128E+01  0.186E+00  0.454E+00  0.454E+00  0.186E+00
  10.443  0.137E+01  0.205E+00  0.480E+00  0.480E+00  0.205E+00
  10.445  0.195E+01  0.294E+00  0.680E+00  0.680E+00  0.294E+00
  10.447  0.618E+00  0.125E+00  0.184E+00  0.184E+00  0.125E+00
  10.449  0.158E+00  0.547E-01  0.244E-01  0.244E-01  0.547E-01
  10.451  0.181E+00  0.449E-01  0.456E-01  0.456E-01  0.449E-01
  10.453  0.315E+00  0.767E-01  0.809E-01  0.809E-01  0.767E-01
  10.455  0.560E+00  0.118E+00  0.162E+00  0.162E+00  0.118E+00
  10.457  0.167E+01  0.270E+00  0.565E+00  0.565E+00  0.270E+00
  10.459  0.174E+01  0.272E+00  0.599E+00  0.599E+00  0.272E+00
  10.461  0.615E+00  0.130E+00  0.178E+00  0.178E+00  0.130E+00
  10.463  0.478E+00  0.134E+00  0.105E+00  0.105E+00  0.134E+00
  10.465  0.111E+01  0.269E+00  0.289E+00  0.289E+00  0.269E+00
  10.467  0.108E+01  0.258E+00  0.280E+00  0.280E+00  0.258E+00
  10.469  0.487E+00  0.141E+00  0.103E+00  0.103E+00  0.141E+00
  10.471  0.136E+00  0.431E-01  0.250E-01  0.250E-01  0.431E-01
  10.473  0.455E-01  0.166E-01  0.614E-02  0.614E-02  0.166E-01
  10.475  0.260E+00  0.830E-01  0.470E-01  0.470E-01  0.830E-01
  10.477  0.872E+00  0.216E+00  0.220E+00  0.220E+00  0.216E+00
  10.479  0.166E+01  0.380E+00  0.451E+00  0.451E+00  0.380E+00
  10.481  0.176E+01  0.319E+00  0.564E+00  0.564E+00  0.319E+00
  10.483  0.114E+01  0.162E+00  0.409E+00  0.409E+00  0.162E+00
  10.485  0.512E+00  0.898E-01  0.166E+00  0.166E+00  0.898E-01
  10.487  0.839E-01  0.160E-01  0.259E-01  0.259E-01  0.160E-01
  10.489  0.287E-02  0.607E-03  0.829E-03  0.829E-03  0.607E-03
  10.491  0.287E-01  0.835E-02  0.600E-02  0.600E-02  0.835E-02
  10.493  0.230E+00  0.644E-01  0.506E-01  0.506E-01  0.644E-01
  10.495  0.336E+00  0.853E-01  0.828E-01  0.828E-01  0.853E-01
  10.497  0.468E+00  0.101E+00  0.134E+00  0.134E+00  0.101E+00
  10.499  0.532E+00  0.119E+00  0.148E+00  0.148E+00  0.119E+00
  10.501  0.381E+00  0.807E-01  0.110E+00  0.110E+00  0.807E-01
  10.503  0.522E+00  0.109E+00  0.152E+00  0.152E+00  0.109E+00
  10.505  0.503E+00  0.115E+00  0.136E+00  0.136E+00  0.115E+00
  10.507  0.637E+00  0.144E+00  0.175E+00  0.175E+00  0.144E+00
  10.509  0.318E+00  0.708E-01  0.884E-01  0.884E-01  0.708E-01
  10.511  0.776E+00  0.152E+00  0.237E+00  0.237E+00  0.152E+00
  10.513  0.129E+01  0.208E+00  0.438E+00  0.438E+00  0.208E+00
  10.515  0.895E+00  0.114E+00  0.334E+00  0.334E+00  0.114E+00
  10.517  0.604E+00  0.113E+00  0.189E+00  0.189E+00  0.113E+00
  10.519  0.671E+00  0.172E+00  0.163E+00  0.163E+00  0.172E+00
  10.521  0.308E+00  0.849E-01  0.692E-01  0.692E-01  0.849E-01
  10.523  0.274E-01  0.807E-02  0.566E-02  0.566E-02  0.807E-02
  10.525  0.587E-01  0.190E-01  0.103E-01  0.103E-01  0.190E-01
  10.527  0.192E+00  0.599E-01  0.360E-01  0.360E-01  0.599E-01
  10.529  0.555E+00  0.151E+00  0.127E+00  0.127E+00  0.151E+00
  10.531  0.847E+00  0.191E+00  0.233E+00  0.233E+00  0.191E+00
  10.533  0.547E+00  0.132E+00  0.141E+00  0.141E+00  0.132E+00
  10.535  0.183E+00  0.549E-01  0.368E-01  0.368E-01  0.549E-01
  10.537  0.309E+00  0.749E-01  0.794E-01  0.794E-01  0.749E-01
  10.539  0.338E+00  0.785E-01  0.902E-01  0.902E-01  0.785E-01
  10.541  0.283E+00  0.771E-01  0.646E-01  0.646E-01  0.771E-01
  10.543  0.220E+00  0.605E-01  0.496E-01  0.496E-01  0.605E-01
  10.545  0.462E+00  0.124E+00  0.107E+00  0.107E+00  0.124E+00
  10.547  0.375E+00  0.105E+00  0.823E-01  0.823E-01  0.105E+00
  10.549  0.537E+00  0.142E+00  0.127E+00  0.127E+00  0.142E+00
  10.551  0.916E+00  0.178E+00  0.280E+00  0.280E+00  0.178E+00
  10.553  0.962E+00  0.150E+00  0.331E+00  0.331E+00  0.150E+00
  10.555  0.103E+01  0.169E+00  0.346E+00  0.346E+00  0.169E+00
  10.557  0.647E+00  0.104E+00  0.219E+00  0.219E+00  0.104E+00
  10.559  0.296E+00  0.532E-01  0.948E-01  0.948E-01  0.532E-01
  10.561  0.392E+00  0.738E-01  0.122E+00  0.122E+00  0.738E-01
  10.563  0.633E+00  0.120E+00  0.196E+00  0.196E+00  0.120E+00
  10.565  0.464E+00  0.110E+00  0.122E+00  0.122E+00  0.110E+00
  10.567  0.332E+00  0.950E-01  0.712E-01  0.712E-01  0.950E-01
  10.569  0.398E+00  0.952E-01  0.104E+00  0.104E+00  0.952E-01
  10.571  0.734E+00  0.161E+00  0.206E+00  0.206E+00  0.161E+00
  10.573  0.612E+00  0.148E+00  0.158E+00  0.158E+00  0.148E+00
  10.575  0.581E+00  0.154E+00  0.137E+00  0.137E+00  0.154E+00
  10.577  0.377E+00  0.103E+00  0.853E-01  0.853E-01  0.103E+00
  10.579  0.613E+00  0.175E+00  0.132E+00  0.132E+00  0.175E+00
  10.581  0.355E+00  0.946E-01  0.827E-01  0.827E-01  0.946E-01
  10.583  0.329E+00  0.749E-01  0.896E-01  0.896E-01  0.749E-01
  10.585  0.116E+00  0.260E-01  0.318E-01  0.318E-01  0.260E-01
  10.587  0.572E-02  0.129E-02  0.157E-02  0.157E-02  0.129E-02
  10.589  0.157E-02  0.336E-03  0.450E-03  0.450E-03  0.336E-03
  10.591  0.739E-01  0.157E-01  0.213E-01  0.213E-01  0.157E-01
  10.593  0.544E+00  0.115E+00  0.157E+00  0.157E+00  0.115E+00
  10.595  0.895E+00  0.177E+00  0.271E+00  0.271E+00  0.177E+00
  10.597  0.936E+00  0.145E+00  0.323E+00  0.323E+00  0.145E+00
  10.599  0.727E+00  0.110E+00  0.253E+00  0.253E+00  0.110E+00
  10.601  0.761E+00  0.117E+00  0.264E+00  0.264E+00  0.117E+00
  10.603  0.631E+00  0.951E-01  0.221E+00  0.221E+00  0.951E-01
  10.605  0.745E+00  0.157E+00  0.215E+00  0.215E+00  0.157E+00
  10.607  0.122E+01  0.275E+00  0.335E+00  0.335E+00  0.275E+00
  10.609  0.121E+01  0.279E+00  0.327E+00  0.327E+00  0.279E+00
  10.611  0.778E+00  0.178E+00  0.211E+00  0.211E+00  0.178E+00
  10.613  0.389E+00  0.907E-01  0.104E+00  0.104E+00  0.907E-01
  10.615  0.648E+00  0.153E+00  0.171E+00  0.171E+00  0.153E+00
  10.617  0.841E+00  0.209E+00  0.212E+00  0.212E+00  0.209E+00
  10.619  0.362E+00  0.101E+00  0.803E-01  0.803E-01  0.101E+00
  10.621  0.278E+00  0.879E-01  0.511E-01  0.511E-01  0.879E-01
  10.623  0.219E+00  0.708E-01  0.387E-01  0.387E-01  0.708E-01
  10.625  0.698E+00  0.180E+00  0.169E+00  0.169E+00  0.180E+00
  10.627  0.966E+00  0.235E+00  0.248E+00  0.248E+00  0.235E+00
  10.629  0.933E+00  0.244E+00  0.223E+00  0.223E+00  0.244E+00
  10.631  0.923E+00  0.233E+00  0.229E+00  0.229E+00  0.233E+00
  10.633  0.570E+00  0.141E+00  0.144E+00  0.144E+00  0.141E+00
  10.635  0.160E+00  0.374E-01  0.426E-01  0.426E-01  0.374E-01
  10.637  0.256E+00  0.452E-01  0.828E-01  0.828E-01  0.452E-01
  10.639  0.672E+00  0.131E+00  0.204E+00  0.204E+00  0.131E+00
  10.641  0.784E+00  0.168E+00  0.224E+00  0.224E+00  0.168E+00
  10.643  0.593E+00  0.128E+00  0.169E+00  0.169E+00  0.128E+00
  10.645  0.826E+00  0.160E+00  0.253E+00  0.253E+00  0.160E+00
  10.647  0.952E+00  0.161E+00  0.315E+00  0.315E+00  0.161E+00
  10.649  0.500E+00  0.842E-01  0.166E+00  0.166E+00  0.842E-01
  10.651  0.396E+00  0.800E-01  0.118E+00  0.118E+00  0.800E-01
  10.653  0.901E+00  0.174E+00  0.276E+00  0.276E+00  0.174E+00
  10.655  0.660E+00  0.129E+00  0.201E+00  0.201E+00  0.129E+00
  10.657  0.427E+00  0.915E-01  0.122E+00  0.122E+00  0.915E-01
  10.659  0.544E+00  0.119E+00  0.153E+00  0.153E+00  0.119E+00
  10.661  0.260E+00  0.590E-01  0.709E-01  0.709E-01  0.590E-01
  10.663  0.200E+00  0.487E-01  0.512E-01  0.512E-01  0.487E-01
  10.665  0.581E-01  0.142E-01  0.148E-01  0.148E-01  0.142E-01
  10.667  0.199E-01  0.399E-02  0.598E-02  0.598E-02  0.399E-02
  10.669  0.162E+00  0.320E-01  0.488E-01  0.488E-01  0.320E-01
  10.671  0.232E+00  0.539E-01  0.621E-01  0.621E-01  0.539E-01
  10.673  0.938E-01  0.326E-01  0.143E-01  0.143E-01  0.326E-01
  10.675  0.346E-01  0.116E-01  0.567E-02  0.567E-02  0.116E-01
  10.677  0.384E+00  0.100E+00  0.919E-01  0.919E-01  0.100E+00
  10.679  0.140E+01  0.336E+00  0.364E+00  0.364E+00  0.336E+00
  10.681  0.127E+01  0.302E+00  0.332E+00  0.332E+00  0.302E+00
  10.683  0.310E+00  0.768E-01  0.781E-01  0.781E-01  0.768E-01
  10.685  0.151E-01  0.379E-02  0.377E-02  0.377E-02  0.379E-02
  10.687  0.128E-02  0.288E-03  0.349E-03  0.349E-03  0.288E-03
  10.689  0.610E-01  0.137E-01  0.168E-01  0.168E-01  0.137E-01
  10.691  0.452E+00  0.102E+00  0.124E+00  0.124E+00  0.102E+00
  10.693  0.594E+00  0.140E+00  0.157E+00  0.157E+00  0.140E+00
  10.695  0.293E+00  0.769E-01  0.695E-01  0.695E-01  0.769E-01
  10.697  0.529E+00  0.124E+00  0.140E+00  0.140E+00  0.124E+00
  10.699  0.106E+01  0.208E+00  0.321E+00  0.321E+00  0.208E+00
  10.701  0.757E+00  0.161E+00  0.217E+00  0.217E+00  0.161E+00
  10.703  0.139E+01  0.387E+00  0.306E+00  0.306E+00  0.387E+00
  10.705  0.177E+01  0.487E+00  0.395E+00  0.395E+00  0.487E+00
  10.707  0.108E+01  0.262E+00  0.276E+00  0.276E+00  0.262E+00
  10.709  0.558E+00  0.775E-01  0.202E+00  0.202E+00  0.775E-01
  10.711  0.563E+00  0.136E+00  0.145E+00  0.145E+00  0.136E+00
  10.713  0.724E+00  0.197E+00  0.165E+00  0.165E+00  0.197E+00
  10.715  0.326E+00  0.874E-01  0.756E-01  0.756E-01  0.874E-01
  10.717  0.346E+00  0.100E+00  0.726E-01  0.726E-01  0.100E+00
  10.719  0.256E+00  0.724E-01  0.556E-01  0.556E-01  0.724E-01
  10.721  0.440E+00  0.117E+00  0.103E+00  0.103E+00  0.117E+00
  10.723  0.844E+00  0.215E+00  0.206E+00  0.206E+00  0.215E+00
  10.725  0.498E+00  0.133E+00  0.116E+00  0.116E+00  0.133E+00
  10.727  0.665E+00  0.193E+00  0.140E+00  0.140E+00  0.193E+00
  10.729  0.539E+00  0.139E+00  0.130E+00  0.130E+00  0.139E+00
  10.731  0.417E+00  0.771E-01  0.131E+00  0.131E+00  0.771E-01
  10.733  0.585E+00  0.121E+00  0.172E+00  0.172E+00  0.121E+00
  10.735  0.789E+00  0.194E+00  0.200E+00  0.200E+00  0.194E+00
  10.737  0.550E+00  0.154E+00  0.121E+00  0.121E+00  0.154E+00
  10.739  0.335E+00  0.103E+00  0.644E-01  0.644E-01  0.103E+00
  10.741  0.202E+00  0.521E-01  0.489E-01  0.489E-01  0.521E-01
  10.743  0.325E+00  0.702E-01  0.926E-01  0.926E-01  0.702E-01
  10.745  0.193E+00  0.426E-01  0.539E-01  0.539E-01  0.426E-01
  10.747  0.304E+00  0.688E-01  0.834E-01  0.834E-01  0.688E-01
  10.749  0.313E+00  0.633E-01  0.933E-01  0.933E-01  0.633E-01
  10.751  0.373E+00  0.841E-01  0.102E+00  0.102E+00  0.841E-01
  10.753  0.788E+00  0.168E+00  0.226E+00  0.226E+00  0.168E+00
  10.755  0.736E+00  0.143E+00  0.225E+00  0.225E+00  0.143E+00
  10.757  0.663E+00  0.165E+00  0.166E+00  0.166E+00  0.165E+00
  10.759  0.628E+00  0.150E+00  0.164E+00  0.164E+00  0.150E+00
  10.761  0.253E+00  0.562E-01  0.706E-01  0.706E-01  0.562E-01
  10.763  0.766E-01  0.156E-01  0.227E-01  0.227E-01  0.156E-01
  10.765  0.655E+00  0.119E+00  0.208E+00  0.208E+00  0.119E+00
  10.767  0.139E+01  0.240E+00  0.456E+00  0.456E+00  0.240E+00
  10.769  0.653E+00  0.125E+00  0.202E+00  0.202E+00  0.125E+00
  10.771  0.265E+00  0.728E-01  0.597E-01  0.597E-01  0.728E-01
  10.773  0.356E+00  0.106E+00  0.720E-01  0.720E-01  0.106E+00
  10.775  0.438E+00  0.129E+00  0.898E-01  0.898E-01  0.129E+00
  10.777  0.210E+00  0.619E-01  0.429E-01  0.429E-01  0.619E-01
  10.779  0.178E+00  0.550E-01  0.341E-01  0.341E-01  0.550E-01
  10.781  0.407E+00  0.128E+00  0.757E-01  0.757E-01  0.128E+00
  10.783  0.446E+00  0.135E+00  0.882E-01  0.882E-01  0.135E+00
  10.785  0.272E+00  0.837E-01  0.523E-01  0.523E-01  0.837E-01
  10.787  0.647E-01  0.204E-01  0.120E-01  0.120E-01  0.204E-01
  10.789  0.140E+00  0.377E-01  0.324E-01  0.324E-01  0.377E-01
  10.791  0.395E+00  0.107E+00  0.907E-01  0.907E-01  0.107E+00
  10.793  0.567E+00  0.151E+00  0.132E+00  0.132E+00  0.151E+00
  10.795  0.844E+00  0.205E+00  0.217E+00  0.217E+00  0.205E+00
  10.797  0.511E+00  0.110E+00  0.145E+00  0.145E+00  0.110E+00
  10.799  0.390E+00  0.941E-01  0.101E+00  0.101E+00  0.941E-01
  10.801  0.820E+00  0.194E+00  0.215E+00  0.215E+00  0.194E+00
  10.803  0.358E+00  0.814E-01  0.978E-01  0.978E-01  0.814E-01
  10.805  0.165E+00  0.466E-01  0.361E-01  0.361E-01  0.466E-01
  10.807  0.587E+00  0.151E+00  0.142E+00  0.142E+00  0.151E+00
  10.809  0.950E+00  0.186E+00  0.289E+00  0.289E+00  0.186E+00
  10.811  0.859E+00  0.138E+00  0.292E+00  0.292E+00  0.138E+00
  10.813  0.434E+00  0.812E-01  0.136E+00  0.136E+00  0.812E-01
  10.815  0.559E+00  0.119E+00  0.161E+00  0.161E+00  0.119E+00
  10.817  0.449E+00  0.846E-01  0.140E+00  0.140E+00  0.846E-01
  10.819  0.457E+00  0.119E+00  0.109E+00  0.109E+00  0.119E+00
  10.821  0.626E+00  0.181E+00  0.131E+00  0.131E+00  0.181E+00
  10.823  0.211E+00  0.591E-01  0.464E-01  0.464E-01  0.591E-01
  10.825  0.286E+00  0.470E-01  0.962E-01  0.962E-01  0.470E-01
  10.827  0.608E+00  0.828E-01  0.221E+00  0.221E+00  0.828E-01
  10.829  0.364E+00  0.643E-01  0.118E+00  0.118E+00  0.643E-01
  10.831  0.127E+00  0.323E-01  0.314E-01  0.314E-01  0.323E-01
  10.833  0.223E-01  0.592E-02  0.525E-02  0.525E-02  0.592E-02
  10.835  0.138E+00  0.321E-01  0.368E-01  0.368E-01  0.321E-01
  10.837  0.514E+00  0.129E+00  0.128E+00  0.128E+00  0.129E+00
  10.839  0.605E+00  0.151E+00  0.152E+00  0.152E+00  0.151E+00
  10.841  0.686E+00  0.149E+00  0.194E+00  0.194E+00  0.149E+00
  10.843  0.389E+00  0.966E-01  0.981E-01  0.981E-01  0.966E-01
  10.845  0.119E+00  0.380E-01  0.213E-01  0.213E-01  0.380E-01
  10.847  0.296E+00  0.824E-01  0.653E-01  0.653E-01  0.824E-01
  10.849  0.456E+00  0.110E+00  0.119E+00  0.119E+00  0.110E+00
  10.851  0.367E+00  0.752E-01  0.108E+00  0.108E+00  0.752E-01
  10.853  0.375E+00  0.709E-01  0.116E+00  0.116E+00  0.709E-01
  10.855  0.132E+00  0.256E-01  0.406E-01  0.406E-01  0.256E-01
  10.857  0.928E-01  0.257E-01  0.207E-01  0.207E-01  0.257E-01
  10.859  0.271E+00  0.655E-01  0.699E-01  0.699E-01  0.655E-01
  10.861  0.450E+00  0.112E+00  0.113E+00  0.113E+00  0.112E+00
  10.863  0.874E+00  0.244E+00  0.193E+00  0.193E+00  0.244E+00
  10.865  0.924E+00  0.224E+00  0.238E+00  0.238E+00  0.224E+00
  10.867  0.532E+00  0.888E-01  0.177E+00  0.177E+00  0.888E-01
  10.869  0.294E+00  0.398E-01  0.107E+00  0.107E+00  0.398E-01
  10.871  0.204E+00  0.531E-01  0.490E-01  0.490E-01  0.531E-01
  10.873  0.499E+00  0.135E+00  0.115E+00  0.115E+00  0.135E+00
  10.875  0.455E+00  0.112E+00  0.116E+00  0.116E+00  0.112E+00
  10.877  0.326E+00  0.884E-01  0.746E-01  0.746E-01  0.884E-01
  10.879  0.371E+00  0.976E-01  0.879E-01  0.879E-01  0.976E-01
  10.881  0.806E+00  0.195E+00  0.208E+00  0.208E+00  0.195E+00
  10.883  0.879E+00  0.207E+00  0.232E+00  0.232E+00  0.207E+00
  10.885  0.360E+00  0.754E-01  0.105E+00  0.105E+00  0.754E-01
  10.887  0.319E+00  0.263E-01  0.133E+00  0.133E+00  0.263E-01
  10.889  0.304E+00  0.237E-01  0.128E+00  0.128E+00  0.237E-01
  10.891  0.249E+00  0.438E-01  0.805E-01  0.805E-01  0.438E-01
  10.893  0.335E+00  0.653E-01  0.102E+00  0.102E+00  0.653E-01
  10.895  0.867E-01  0.175E-01  0.259E-01  0.259E-01  0.175E-01
  10.897  0.170E+00  0.396E-01  0.454E-01  0.454E-01  0.396E-01
  10.899  0.332E+00  0.778E-01  0.880E-01  0.880E-01  0.778E-01
  10.901  0.428E+00  0.109E+00  0.105E+00  0.105E+00  0.109E+00
  10.903  0.801E+00  0.208E+00  0.192E+00  0.192E+00  0.208E+00
  10.905  0.779E+00  0.169E+00  0.220E+00  0.220E+00  0.169E+00
  10.907  0.365E+00  0.748E-01  0.108E+00  0.108E+00  0.748E-01
  10.909  0.513E+00  0.147E+00  0.110E+00  0.110E+00  0.147E+00
  10.911  0.682E+00  0.190E+00  0.151E+00  0.151E+00  0.190E+00
  10.913  0.570E+00  0.133E+00  0.151E+00  0.151E+00  0.133E+00
  10.915  0.461E+00  0.101E+00  0.130E+00  0.130E+00  0.101E+00
  10.917  0.250E+00  0.582E-01  0.669E-01  0.669E-01  0.582E-01
  10.919  0.198E+00  0.463E-01  0.525E-01  0.525E-01  0.463E-01
  10.921  0.312E+00  0.558E-01  0.100E+00  0.100E+00  0.558E-01
  10.923  0.521E+00  0.847E-01  0.176E+00  0.176E+00  0.847E-01
  10.925  0.617E+00  0.997E-01  0.209E+00  0.209E+00  0.997E-01
  10.927  0.797E+00  0.153E+00  0.245E+00  0.245E+00  0.153E+00
  10.929  0.312E+00  0.634E-01  0.926E-01  0.926E-01  0.634E-01
  10.931  0.804E-01  0.212E-01  0.190E-01  0.190E-01  0.212E-01
  10.933  0.317E+00  0.855E-01  0.731E-01  0.731E-01  0.855E-01
  10.935  0.513E+00  0.133E+00  0.124E+00  0.124E+00  0.133E+00
  10.937  0.389E+00  0.104E+00  0.911E-01  0.911E-01  0.104E+00
  10.939  0.625E-01  0.169E-01  0.144E-01  0.144E-01  0.169E-01
  10.941  0.117E-01  0.339E-02  0.246E-02  0.246E-02  0.339E-02
  10.943  0.211E+00  0.599E-01  0.458E-01  0.458E-01  0.599E-01
  10.945  0.678E+00  0.182E+00  0.157E+00  0.157E+00  0.182E+00
  10.947  0.603E+00  0.126E+00  0.175E+00  0.175E+00  0.126E+00
  10.949  0.669E+00  0.980E-01  0.236E+00  0.236E+00  0.980E-01
  10.951  0.719E+00  0.158E+00  0.202E+00  0.202E+00  0.158E+00
  10.953  0.416E+00  0.101E+00  0.107E+00  0.107E+00  0.101E+00
  10.955  0.416E+00  0.828E-01  0.125E+00  0.125E+00  0.828E-01
  10.957  0.635E+00  0.142E+00  0.176E+00  0.176E+00  0.142E+00
  10.959  0.537E+00  0.139E+00  0.129E+00  0.129E+00  0.139E+00
  10.961  0.565E+00  0.133E+00  0.150E+00  0.150E+00  0.133E+00
  10.963  0.619E+00  0.157E+00  0.152E+00  0.152E+00  0.157E+00
  10.965  0.236E+00  0.733E-01  0.449E-01  0.449E-01  0.733E-01
  10.967  0.114E+00  0.302E-01  0.267E-01  0.267E-01  0.302E-01
  10.969  0.108E+00  0.230E-01  0.309E-01  0.309E-01  0.230E-01
  10.971  0.287E+00  0.574E-01  0.859E-01  0.859E-01  0.574E-01
  10.973  0.643E+00  0.137E+00  0.185E+00  0.185E+00  0.137E+00
  10.975  0.646E+00  0.151E+00  0.173E+00  0.173E+00  0.151E+00
  10.977  0.801E+00  0.186E+00  0.215E+00  0.215E+00  0.186E+00
  10.979  0.721E+00  0.150E+00  0.210E+00  0.210E+00  0.150E+00
  10.981  0.106E+01  0.226E+00  0.302E+00  0.302E+00  0.226E+00
  10.983  0.752E+00  0.155E+00  0.221E+00  0.221E+00  0.155E+00
  10.985  0.107E+00  0.210E-01  0.324E-01  0.324E-01  0.210E-01
  10.987  0.259E+00  0.602E-01  0.692E-01  0.692E-01  0.602E-01
  10.989  0.105E+01  0.246E+00  0.279E+00  0.279E+00  0.246E+00
  10.991  0.861E+00  0.203E+00  0.227E+00  0.227E+00  0.203E+00
  10.993  0.206E+00  0.517E-01  0.514E-01  0.514E-01  0.517E-01
  10.995  0.533E+00  0.131E+00  0.136E+00  0.136E+00  0.131E+00
  10.997  0.662E+00  0.142E+00  0.189E+00  0.189E+00  0.142E+00
  10.999  0.301E+00  0.569E-01  0.934E-01  0.934E-01  0.569E-01
  11.001  0.269E+00  0.532E-01  0.811E-01  0.811E-01  0.532E-01
  11.003  0.345E+00  0.933E-01  0.792E-01  0.792E-01  0.933E-01
  11.005  0.300E+00  0.820E-01  0.678E-01  0.678E-01  0.820E-01
  11.007  0.365E+00  0.699E-01  0.113E+00  0.113E+00  0.699E-01
  11.009  0.614E+00  0.736E-01  0.233E+00  0.233E+00  0.736E-01
  11.011  0.403E+00  0.427E-01  0.159E+00  0.159E+00  0.427E-01
  11.013  0.526E-01  0.620E-02  0.201E-01  0.201E-01  0.620E-02
  11.015  0.116E-01  0.222E-02  0.356E-02  0.356E-02  0.222E-02
  11.017  0.157E+00  0.316E-01  0.470E-01  0.470E-01  0.316E-01
  11.019  0.405E+00  0.877E-01  0.115E+00  0.115E+00  0.877E-01
  11.021  0.442E+00  0.109E+00  0.112E+00  0.112E+00  0.109E+00
  11.023  0.452E+00  0.105E+00  0.121E+00  0.121E+00  0.105E+00
  11.025  0.481E+00  0.130E+00  0.111E+00  0.111E+00  0.130E+00
  11.027  0.428E+00  0.117E+00  0.967E-01  0.967E-01  0.117E+00
  11.029  0.295E+00  0.684E-01  0.789E-01  0.789E-01  0.684E-01
  11.031  0.709E+00  0.161E+00  0.194E+00  0.194E+00  0.161E+00
  11.033  0.488E+00  0.107E+00  0.138E+00  0.138E+00  0.107E+00
  11.035  0.333E+00  0.598E-01  0.107E+00  0.107E+00  0.598E-01
  11.037  0.337E+00  0.489E-01  0.120E+00  0.120E+00  0.489E-01
  11.039  0.218E+00  0.324E-01  0.766E-01  0.766E-01  0.324E-01
  11.041  0.210E+00  0.574E-01  0.478E-01  0.478E-01  0.574E-01
  11.043  0.277E+00  0.790E-01  0.592E-01  0.592E-01  0.790E-01
  11.045  0.176E+00  0.483E-01  0.395E-01  0.395E-01  0.483E-01
  11.047  0.122E+00  0.330E-01  0.280E-01  0.280E-01  0.330E-01
  11.049  0.566E-01  0.137E-01  0.146E-01  0.146E-01  0.137E-01
  11.051  0.193E+00  0.447E-01  0.517E-01  0.517E-01  0.447E-01
  11.053  0.122E+00  0.283E-01  0.329E-01  0.329E-01  0.283E-01
  11.055  0.413E-01  0.844E-02  0.122E-01  0.122E-01  0.844E-02
  11.057  0.118E+00  0.231E-01  0.360E-01  0.360E-01  0.231E-01
  11.059  0.268E+00  0.588E-01  0.750E-01  0.750E-01  0.588E-01
  11.061  0.478E+00  0.117E+00  0.122E+00  0.122E+00  0.117E+00
  11.063  0.443E+00  0.112E+00  0.109E+00  0.109E+00  0.112E+00
  11.065  0.298E+00  0.652E-01  0.836E-01  0.836E-01  0.652E-01
  11.067  0.229E+00  0.315E-01  0.828E-01  0.828E-01  0.315E-01
  11.069  0.592E+00  0.877E-01  0.208E+00  0.208E+00  0.877E-01
  11.071  0.460E+00  0.104E+00  0.127E+00  0.127E+00  0.104E+00
  11.073  0.370E+00  0.973E-01  0.879E-01  0.879E-01  0.973E-01
  11.075  0.630E+00  0.137E+00  0.178E+00  0.178E+00  0.137E+00
  11.077  0.686E+00  0.151E+00  0.192E+00  0.192E+00  0.151E+00
  11.079  0.382E+00  0.861E-01  0.105E+00  0.105E+00  0.861E-01
  11.081  0.248E+00  0.576E-01  0.663E-01  0.663E-01  0.576E-01
  11.083  0.185E+00  0.466E-01  0.457E-01  0.457E-01  0.466E-01
  11.085  0.895E-01  0.352E-01  0.952E-02  0.952E-02  0.352E-01
  11.087  0.123E+00  0.355E-01  0.261E-01  0.261E-01  0.355E-01
  11.089  0.650E+00  0.127E+00  0.198E+00  0.198E+00  0.127E+00
  11.091  0.125E+01  0.253E+00  0.373E+00  0.373E+00  0.253E+00
  11.093  0.820E+00  0.160E+00  0.250E+00  0.250E+00  0.160E+00
  11.095  0.172E+00  0.337E-01  0.523E-01  0.523E-01  0.337E-01
  11.097  0.247E+00  0.630E-01  0.603E-01  0.603E-01  0.630E-01
  11.099  0.207E+00  0.522E-01  0.511E-01  0.511E-01  0.522E-01
  11.101  0.612E-01  0.107E-01  0.199E-01  0.199E-01  0.107E-01
  11.103  0.119E+00  0.288E-01  0.305E-01  0.305E-01  0.288E-01
  11.105  0.367E+00  0.102E+00  0.812E-01  0.812E-01  0.102E+00
  11.107  0.197E+00  0.554E-01  0.429E-01  0.429E-01  0.554E-01
  11.109  0.585E-01  0.155E-01  0.137E-01  0.137E-01  0.155E-01
  11.111  0.182E+00  0.471E-01  0.442E-01  0.442E-01  0.471E-01
  11.113  0.216E+00  0.499E-01  0.583E-01  0.583E-01  0.499E-01
  11.115  0.494E+00  0.103E+00  0.144E+00  0.144E+00  0.103E+00
  11.117  0.405E+00  0.850E-01  0.117E+00  0.117E+00  0.850E-01
  11.119  0.184E+00  0.409E-01  0.509E-01  0.509E-01  0.409E-01
  11.121  0.317E-01  0.720E-02  0.866E-02  0.866E-02  0.720E-02
  11.123  0.156E-01  0.105E-02  0.674E-02  0.674E-02  0.105E-02
  11.125  0.219E+00  0.182E-01  0.912E-01  0.912E-01  0.182E-01
  11.127  0.659E+00  0.758E-01  0.254E+00  0.254E+00  0.758E-01
  11.129  0.431E+00  0.614E-01  0.154E+00  0.154E+00  0.614E-01
  11.131  0.293E+00  0.547E-01  0.919E-01  0.919E-01  0.547E-01
  11.133  0.692E+00  0.149E+00  0.197E+00  0.197E+00  0.149E+00
  11.135  0.692E+00  0.150E+00  0.197E+00  0.197E+00  0.150E+00
  11.137  0.167E+00  0.371E-01  0.466E-01  0.466E-01  0.371E-01
  11.139  0.138E+00  0.413E-01  0.277E-01  0.277E-01  0.413E-01
  11.141  0.362E+00  0.895E-01  0.917E-01  0.917E-01  0.895E-01
  11.143  0.858E+00  0.196E+00  0.233E+00  0.233E+00  0.196E+00
  11.145  0.908E+00  0.204E+00  0.250E+00  0.250E+00  0.204E+00
  11.147  0.623E+00  0.123E+00  0.188E+00  0.188E+00  0.123E+00
  11.149  0.474E+00  0.108E+00  0.130E+00  0.130E+00  0.108E+00
  11.151  0.468E+00  0.111E+00  0.123E+00  0.123E+00  0.111E+00
  11.153  0.162E+00  0.337E-01  0.473E-01  0.473E-01  0.337E-01
  11.155  0.297E+00  0.539E-01  0.946E-01  0.946E-01  0.539E-01
  11.157  0.570E+00  0.130E+00  0.156E+00  0.156E+00  0.130E+00
  11.159  0.571E+00  0.144E+00  0.142E+00  0.142E+00  0.144E+00
  11.161  0.179E+00  0.482E-01  0.413E-01  0.413E-01  0.482E-01
  11.163  0.270E+00  0.769E-01  0.582E-01  0.582E-01  0.769E-01
  11.165  0.248E+00  0.670E-01  0.572E-01  0.572E-01  0.670E-01
  11.167  0.208E+00  0.525E-01  0.513E-01  0.513E-01  0.525E-01
  11.169  0.532E-01  0.121E-01  0.145E-01  0.145E-01  0.121E-01
  11.171  0.487E-01  0.467E-02  0.197E-01  0.197E-01  0.467E-02
  11.173  0.371E-01  0.340E-02  0.152E-01  0.152E-01  0.340E-02
  11.175  0.569E-02  0.517E-03  0.233E-02  0.233E-02  0.517E-03
  11.177  0.363E-01  0.502E-02  0.131E-01  0.131E-01  0.502E-02
  11.179  0.212E+00  0.401E-01  0.661E-01  0.661E-01  0.401E-01
  11.181  0.600E+00  0.972E-01  0.203E+00  0.203E+00  0.972E-01
  11.183  0.770E+00  0.106E+00  0.279E+00  0.279E+00  0.106E+00
  11.185  0.467E+00  0.670E-01  0.167E+00  0.167E+00  0.670E-01
  11.187  0.317E+00  0.496E-01  0.109E+00  0.109E+00  0.496E-01
  11.189  0.185E+00  0.303E-01  0.619E-01  0.619E-01  0.303E-01
  11.191  0.285E+00  0.498E-01  0.925E-01  0.925E-01  0.498E-01
  11.193  0.324E+00  0.609E-01  0.101E+00  0.101E+00  0.609E-01
  11.195  0.393E+00  0.872E-01  0.109E+00  0.109E+00  0.872E-01
  11.197  0.862E+00  0.200E+00  0.231E+00  0.231E+00  0.200E+00
  11.199  0.620E+00  0.132E+00  0.178E+00  0.178E+00  0.132E+00
  11.201  0.225E+00  0.585E-01  0.541E-01  0.541E-01  0.585E-01
  11.203  0.849E-01  0.281E-01  0.144E-01  0.144E-01  0.281E-01
  11.205  0.214E+00  0.474E-01  0.597E-01  0.597E-01  0.474E-01
  11.207  0.364E+00  0.100E+00  0.813E-01  0.813E-01  0.100E+00
  11.209  0.169E+00  0.526E-01  0.321E-01  0.321E-01  0.526E-01
  11.211  0.243E+00  0.629E-01  0.583E-01  0.583E-01  0.629E-01
  11.213  0.334E+00  0.804E-01  0.864E-01  0.864E-01  0.804E-01
  11.215  0.251E+00  0.577E-01  0.678E-01  0.678E-01  0.577E-01
  11.217  0.101E+00  0.229E-01  0.274E-01  0.274E-01  0.229E-01
  11.219  0.235E-01  0.491E-02  0.683E-02  0.683E-02  0.491E-02
  11.221  0.172E+00  0.342E-01  0.515E-01  0.515E-01  0.342E-01
  11.223  0.239E+00  0.470E-01  0.725E-01  0.725E-01  0.470E-01
  11.225  0.456E-01  0.883E-02  0.140E-01  0.140E-01  0.883E-02
  11.227  0.120E-02  0.227E-03  0.371E-03  0.371E-03  0.227E-03
  11.229  0.661E-05  0.963E-06  0.234E-05  0.234E-05  0.963E-06
  11.231  0.894E-03  0.647E-04  0.383E-03  0.383E-03  0.647E-04
  11.233  0.483E-01  0.366E-02  0.205E-01  0.205E-01  0.366E-02
  11.235  0.397E+00  0.374E-01  0.161E+00  0.161E+00  0.374E-01
  11.237  0.711E+00  0.114E+00  0.242E+00  0.242E+00  0.114E+00
  11.239  0.424E+00  0.986E-01  0.114E+00  0.114E+00  0.986E-01
  11.241  0.701E-01  0.178E-01  0.172E-01  0.172E-01  0.178E-01
  11.243  0.160E+00  0.350E-01  0.450E-01  0.450E-01  0.350E-01
  11.245  0.377E+00  0.831E-01  0.105E+00  0.105E+00  0.831E-01
  11.247  0.298E+00  0.624E-01  0.865E-01  0.865E-01  0.624E-01
  11.249  0.567E+00  0.107E+00  0.177E+00  0.177E+00  0.107E+00
  11.251  0.678E+00  0.127E+00  0.213E+00  0.213E+00  0.127E+00
  11.253  0.685E+00  0.171E+00  0.171E+00  0.171E+00  0.171E+00
  11.255  0.636E+00  0.182E+00  0.136E+00  0.136E+00  0.182E+00
  11.257  0.260E+00  0.865E-01  0.436E-01  0.436E-01  0.865E-01
  11.259  0.189E+00  0.492E-01  0.453E-01  0.453E-01  0.492E-01
  11.261  0.300E+00  0.700E-01  0.798E-01  0.798E-01  0.700E-01
  11.263  0.767E-01  0.179E-01  0.205E-01  0.205E-01  0.179E-01
  11.265  0.267E-02  0.621E-03  0.712E-03  0.712E-03  0.621E-03
  11.267  0.248E-03  0.296E-04  0.943E-04  0.943E-04  0.296E-04
  11.269  0.128E-01  0.176E-02  0.464E-02  0.464E-02  0.176E-02
  11.271  0.121E+00  0.247E-01  0.359E-01  0.359E-01  0.247E-01
  11.273  0.250E+00  0.728E-01  0.522E-01  0.522E-01  0.728E-01
  11.275  0.104E+00  0.354E-01  0.168E-01  0.168E-01  0.354E-01
  11.277  0.697E-02  0.247E-02  0.102E-02  0.102E-02  0.247E-02
  11.279  0.833E-03  0.146E-03  0.271E-03  0.271E-03  0.146E-03
  11.281  0.375E-01  0.594E-02  0.128E-01  0.128E-01  0.594E-02
  11.283  0.262E+00  0.402E-01  0.907E-01  0.907E-01  0.402E-01
  11.285  0.436E+00  0.512E-01  0.167E+00  0.167E+00  0.512E-01
  11.287  0.497E+00  0.523E-01  0.196E+00  0.196E+00  0.523E-01
  11.289  0.501E+00  0.105E+00  0.146E+00  0.146E+00  0.105E+00
  11.291  0.389E+00  0.987E-01  0.956E-01  0.956E-01  0.987E-01
  11.293  0.123E+00  0.297E-01  0.318E-01  0.318E-01  0.297E-01
  11.295  0.247E+00  0.491E-01  0.742E-01  0.742E-01  0.491E-01
  11.297  0.537E+00  0.994E-01  0.169E+00  0.169E+00  0.994E-01
  11.299  0.594E+00  0.118E+00  0.179E+00  0.179E+00  0.118E+00
  11.301  0.553E+00  0.108E+00  0.169E+00  0.169E+00  0.108E+00
  11.303  0.453E+00  0.904E-01  0.136E+00  0.136E+00  0.904E-01
  11.305  0.378E+00  0.788E-01  0.110E+00  0.110E+00  0.788E-01
  11.307  0.396E+00  0.790E-01  0.119E+00  0.119E+00  0.790E-01
  11.309  0.480E+00  0.115E+00  0.125E+00  0.125E+00  0.115E+00
  11.311  0.531E+00  0.129E+00  0.136E+00  0.136E+00  0.129E+00
  11.313  0.256E+00  0.650E-01  0.631E-01  0.631E-01  0.650E-01
  11.315  0.337E+00  0.858E-01  0.827E-01  0.827E-01  0.858E-01
  11.317  0.145E+00  0.362E-01  0.365E-01  0.365E-01  0.362E-01
  11.319  0.910E-02  0.220E-02  0.235E-02  0.235E-02  0.220E-02
  11.321  0.811E-04  0.188E-04  0.217E-04  0.217E-04  0.188E-04
  11.323  0.103E-06  0.229E-07  0.284E-07  0.284E-07  0.229E-07
  11.325  0.165E-06  0.330E-07  0.493E-07  0.493E-07  0.330E-07
  11.327  0.836E-04  0.167E-04  0.251E-04  0.251E-04  0.167E-04
  11.329  0.634E-02  0.122E-02  0.195E-02  0.195E-02  0.122E-02
  11.331  0.903E-01  0.147E-01  0.305E-01  0.305E-01  0.147E-01
  11.333  0.367E+00  0.404E-01  0.143E+00  0.143E+00  0.404E-01
  11.335  0.395E+00  0.372E-01  0.160E+00  0.160E+00  0.372E-01
  11.337  0.294E+00  0.787E-01  0.681E-01  0.681E-01  0.787E-01
  11.339  0.638E+00  0.187E+00  0.132E+00  0.132E+00  0.187E+00
  11.341  0.328E+00  0.909E-01  0.730E-01  0.730E-01  0.909E-01
  11.343  0.177E+00  0.480E-01  0.405E-01  0.405E-01  0.480E-01
  11.345  0.507E+00  0.126E+00  0.127E+00  0.127E+00  0.126E+00
  11.347  0.492E+00  0.108E+00  0.138E+00  0.138E+00  0.108E+00
  11.349  0.438E+00  0.829E-01  0.136E+00  0.136E+00  0.829E-01
  11.351  0.675E+00  0.105E+00  0.232E+00  0.232E+00  0.105E+00
  11.353  0.496E+00  0.771E-01  0.171E+00  0.171E+00  0.771E-01
  11.355  0.151E+00  0.309E-01  0.444E-01  0.444E-01  0.309E-01
  11.357  0.312E+00  0.784E-01  0.777E-01  0.777E-01  0.784E-01
  11.359  0.310E+00  0.881E-01  0.670E-01  0.670E-01  0.881E-01
  11.361  0.269E+00  0.606E-01  0.741E-01  0.741E-01  0.606E-01
  11.363  0.359E+00  0.624E-01  0.117E+00  0.117E+00  0.624E-01
  11.365  0.215E+00  0.414E-01  0.664E-01  0.664E-01  0.414E-01
  11.367  0.340E+00  0.887E-01  0.814E-01  0.814E-01  0.887E-01
  11.369  0.452E+00  0.121E+00  0.105E+00  0.105E+00  0.121E+00
  11.371  0.203E+00  0.548E-01  0.469E-01  0.469E-01  0.548E-01
  11.373  0.166E-01  0.446E-02  0.383E-02  0.383E-02  0.446E-02
  11.375  0.833E-02  0.703E-03  0.346E-02  0.346E-02  0.703E-03
  11.377  0.157E+00  0.126E-01  0.659E-01  0.659E-01  0.126E-01
  11.379  0.411E+00  0.330E-01  0.172E+00  0.172E+00  0.330E-01
  11.381  0.210E+00  0.222E-01  0.829E-01  0.829E-01  0.222E-01
  11.383  0.332E+00  0.547E-01  0.111E+00  0.111E+00  0.547E-01
  11.385  0.439E+00  0.863E-01  0.133E+00  0.133E+00  0.863E-01
  11.387  0.502E+00  0.117E+00  0.134E+00  0.134E+00  0.117E+00
  11.389  0.320E+00  0.802E-01  0.800E-01  0.800E-01  0.802E-01
  11.391  0.474E-01  0.121E-01  0.115E-01  0.115E-01  0.121E-01
  11.393  0.134E-01  0.292E-02  0.376E-02  0.376E-02  0.292E-02
  11.395  0.191E+00  0.407E-01  0.550E-01  0.550E-01  0.407E-01
  11.397  0.509E+00  0.107E+00  0.148E+00  0.148E+00  0.107E+00
  11.399  0.605E+00  0.131E+00  0.172E+00  0.172E+00  0.131E+00
  11.401  0.689E+00  0.174E+00  0.170E+00  0.170E+00  0.174E+00
  11.403  0.260E+00  0.816E-01  0.483E-01  0.483E-01  0.816E-01
  11.405  0.204E+00  0.632E-01  0.387E-01  0.387E-01  0.632E-01
  11.407  0.259E+00  0.725E-01  0.572E-01  0.572E-01  0.725E-01
  11.409  0.628E-01  0.154E-01  0.160E-01  0.160E-01  0.154E-01
  11.411  0.148E+00  0.273E-01  0.467E-01  0.467E-01  0.273E-01
  11.413  0.270E+00  0.496E-01  0.852E-01  0.852E-01  0.496E-01
  11.415  0.158E+00  0.276E-01  0.516E-01  0.516E-01  0.276E-01
  11.417  0.321E+00  0.523E-01  0.108E+00  0.108E+00  0.523E-01
  11.419  0.370E+00  0.432E-01  0.142E+00  0.142E+00  0.432E-01
  11.421  0.493E+00  0.601E-01  0.187E+00  0.187E+00  0.601E-01
  11.423  0.311E+00  0.683E-01  0.872E-01  0.872E-01  0.683E-01
  11.425  0.945E-01  0.241E-01  0.231E-01  0.231E-01  0.241E-01
  11.427  0.304E+00  0.688E-01  0.834E-01  0.834E-01  0.688E-01
  11.429  0.914E+00  0.225E+00  0.231E+00  0.231E+00  0.225E+00
  11.431  0.655E+00  0.173E+00  0.155E+00  0.155E+00  0.173E+00
  11.433  0.170E+00  0.411E-01  0.437E-01  0.437E-01  0.411E-01
  11.435  0.273E+00  0.656E-01  0.708E-01  0.708E-01  0.656E-01
  11.437  0.231E+00  0.567E-01  0.590E-01  0.590E-01  0.567E-01
  11.439  0.131E+00  0.231E-01  0.423E-01  0.423E-01  0.231E-01
  11.441  0.272E+00  0.505E-01  0.854E-01  0.854E-01  0.505E-01
  11.443  0.391E+00  0.860E-01  0.110E+00  0.110E+00  0.860E-01
  11.445  0.255E+00  0.570E-01  0.704E-01  0.704E-01  0.570E-01
  11.447  0.328E+00  0.692E-01  0.948E-01  0.948E-01  0.692E-01
  11.449  0.250E+00  0.700E-01  0.550E-01  0.550E-01  0.700E-01
  11.451  0.902E-01  0.352E-01  0.987E-02  0.987E-02  0.352E-01
  11.453  0.135E+00  0.325E-01  0.351E-01  0.351E-01  0.325E-01
  11.455  0.313E+00  0.701E-01  0.863E-01  0.863E-01  0.701E-01
  11.457  0.264E+00  0.374E-01  0.949E-01  0.949E-01  0.374E-01
  11.459  0.428E+00  0.397E-01  0.174E+00  0.174E+00  0.397E-01
  11.461  0.200E+00  0.336E-01  0.663E-01  0.663E-01  0.336E-01
  11.463  0.207E+00  0.757E-01  0.277E-01  0.277E-01  0.757E-01
  11.465  0.125E+00  0.416E-01  0.208E-01  0.208E-01  0.416E-01
  11.467  0.350E+00  0.633E-01  0.112E+00  0.112E+00  0.633E-01
  11.469  0.767E+00  0.136E+00  0.248E+00  0.248E+00  0.136E+00
  11.471  0.289E+00  0.506E-01  0.937E-01  0.937E-01  0.506E-01
  11.473  0.172E-01  0.297E-02  0.562E-02  0.562E-02  0.297E-02
  11.475  0.752E-02  0.172E-02  0.205E-02  0.205E-02  0.172E-02
  11.477  0.182E+00  0.416E-01  0.493E-01  0.493E-01  0.416E-01
  11.479  0.650E+00  0.149E+00  0.177E+00  0.177E+00  0.149E+00
  11.481  0.541E+00  0.126E+00  0.145E+00  0.145E+00  0.126E+00
  11.483  0.457E+00  0.934E-01  0.135E+00  0.135E+00  0.934E-01
  11.485  0.643E+00  0.113E+00  0.208E+00  0.208E+00  0.113E+00
  11.487  0.458E+00  0.925E-01  0.137E+00  0.137E+00  0.925E-01
  11.489  0.262E+00  0.752E-01  0.558E-01  0.558E-01  0.752E-01
  11.491  0.417E+00  0.119E+00  0.894E-01  0.894E-01  0.119E+00
  11.493  0.589E+00  0.975E-01  0.197E+00  0.197E+00  0.975E-01
  11.495  0.691E+00  0.990E-01  0.247E+00  0.247E+00  0.990E-01
  11.497  0.201E+00  0.342E-01  0.665E-01  0.665E-01  0.342E-01
  11.499  0.298E+00  0.684E-01  0.809E-01  0.809E-01  0.684E-01
  11.501  0.443E+00  0.107E+00  0.115E+00  0.115E+00  0.107E+00
  11.503  0.568E+00  0.136E+00  0.148E+00  0.148E+00  0.136E+00
  11.505  0.233E+00  0.551E-01  0.614E-01  0.614E-01  0.551E-01
  11.507  0.643E-01  0.169E-01  0.153E-01  0.153E-01  0.169E-01
  11.509  0.281E+00  0.785E-01  0.619E-01  0.619E-01  0.785E-01
  11.511  0.233E+00  0.652E-01  0.514E-01  0.514E-01  0.652E-01
  11.513  0.263E-01  0.734E-02  0.580E-02  0.580E-02  0.734E-02
  11.515  0.638E-02  0.104E-02  0.215E-02  0.215E-02  0.104E-02
  11.517  0.116E+00  0.182E-01  0.398E-01  0.398E-01  0.182E-01
  11.519  0.341E+00  0.612E-01  0.109E+00  0.109E+00  0.612E-01
  11.521  0.386E+00  0.103E+00  0.897E-01  0.897E-01  0.103E+00
  11.523  0.651E+00  0.146E+00  0.180E+00  0.180E+00  0.146E+00
  11.525  0.123E+01  0.242E+00  0.374E+00  0.374E+00  0.242E+00
  11.527  0.105E+01  0.202E+00  0.322E+00  0.322E+00  0.202E+00
  11.529  0.372E+00  0.786E-01  0.107E+00  0.107E+00  0.786E-01
  11.531  0.187E+00  0.326E-01  0.610E-01  0.610E-01  0.326E-01
  11.533  0.298E-01  0.490E-02  0.998E-02  0.998E-02  0.490E-02
  11.535  0.555E-01  0.102E-01  0.175E-01  0.175E-01  0.102E-01
  11.537  0.300E+00  0.558E-01  0.941E-01  0.941E-01  0.558E-01
  11.539  0.409E+00  0.784E-01  0.126E+00  0.126E+00  0.784E-01
  11.541  0.202E+00  0.394E-01  0.615E-01  0.615E-01  0.394E-01
  11.543  0.814E-01  0.155E-01  0.252E-01  0.252E-01  0.155E-01
  11.545  0.121E+00  0.256E-01  0.349E-01  0.349E-01  0.256E-01
  11.547  0.440E+00  0.990E-01  0.121E+00  0.121E+00  0.990E-01
  11.549  0.426E+00  0.102E+00  0.111E+00  0.111E+00  0.102E+00
  11.551  0.444E+00  0.109E+00  0.113E+00  0.113E+00  0.109E+00
  11.553  0.509E+00  0.106E+00  0.149E+00  0.149E+00  0.106E+00
  11.555  0.521E+00  0.724E-01  0.188E+00  0.188E+00  0.724E-01
  11.557  0.325E+00  0.375E-01  0.125E+00  0.125E+00  0.375E-01
  11.559  0.494E-01  0.959E-02  0.151E-01  0.151E-01  0.959E-02
  11.561  0.117E+00  0.444E-01  0.140E-01  0.140E-01  0.444E-01
  11.563  0.403E+00  0.101E+00  0.101E+00  0.101E+00  0.101E+00
  11.565  0.671E+00  0.134E+00  0.202E+00  0.202E+00  0.134E+00
  11.567  0.269E+00  0.536E-01  0.807E-01  0.807E-01  0.536E-01
  11.569  0.323E+00  0.661E-01  0.954E-01  0.954E-01  0.661E-01
  11.571  0.437E+00  0.902E-01  0.128E+00  0.128E+00  0.902E-01
  11.573  0.525E+00  0.110E+00  0.153E+00  0.153E+00  0.110E+00
  11.575  0.689E+00  0.160E+00  0.185E+00  0.185E+00  0.160E+00
  11.577  0.466E+00  0.109E+00  0.124E+00  0.124E+00  0.109E+00
  11.579  0.408E+00  0.106E+00  0.979E-01  0.979E-01  0.106E+00
  11.581  0.956E+00  0.214E+00  0.264E+00  0.264E+00  0.214E+00
  11.583  0.964E+00  0.182E+00  0.300E+00  0.300E+00  0.182E+00
  11.585  0.699E+00  0.147E+00  0.203E+00  0.203E+00  0.147E+00
  11.587  0.548E+00  0.104E+00  0.170E+00  0.170E+00  0.104E+00
  11.589  0.206E+00  0.369E-01  0.660E-01  0.660E-01  0.369E-01
  11.591  0.303E+00  0.709E-01  0.806E-01  0.806E-01  0.709E-01
  11.593  0.454E+00  0.120E+00  0.107E+00  0.107E+00  0.120E+00
  11.595  0.354E+00  0.891E-01  0.879E-01  0.879E-01  0.891E-01
  11.597  0.157E+00  0.361E-01  0.422E-01  0.422E-01  0.361E-01
  11.599  0.295E+00  0.645E-01  0.831E-01  0.831E-01  0.645E-01
  11.601  0.237E+00  0.516E-01  0.669E-01  0.669E-01  0.516E-01
  11.603  0.127E+00  0.222E-01  0.413E-01  0.413E-01  0.222E-01
  11.605  0.537E+00  0.913E-01  0.177E+00  0.177E+00  0.913E-01
  11.607  0.548E+00  0.116E+00  0.157E+00  0.157E+00  0.116E+00
  11.609  0.314E+00  0.829E-01  0.742E-01  0.742E-01  0.829E-01
  11.611  0.636E+00  0.144E+00  0.174E+00  0.174E+00  0.144E+00
  11.613  0.103E+01  0.222E+00  0.295E+00  0.295E+00  0.222E+00
  11.615  0.590E+00  0.121E+00  0.174E+00  0.174E+00  0.121E+00
  11.617  0.255E+00  0.493E-01  0.784E-01  0.784E-01  0.493E-01
  11.619  0.974E-01  0.316E-01  0.171E-01  0.171E-01  0.316E-01
  11.621  0.136E+00  0.540E-01  0.140E-01  0.140E-01  0.540E-01
  11.623  0.353E+00  0.945E-01  0.819E-01  0.819E-01  0.945E-01
  11.625  0.119E+01  0.247E+00  0.348E+00  0.348E+00  0.247E+00
  11.627  0.105E+01  0.196E+00  0.331E+00  0.331E+00  0.196E+00
